t[s]	U[V]	I[A]	Piro[C]	TC[C]
-0.01	-0.01	-0.01	695.2	642.3
0.0	9.36	15.54	642.3	695.2
0.01	10.59	17.53	642.5	695.4
0.02	10.86	17.97	642.3	695.5
0.03	10.94	18.08	642.4	695.5
0.04	10.98	18.11	642.2	695.2
0.05	11.0	18.1	642.4	695.3
0.06	11.01	18.09	642.2	695.4
0.07	11.03	18.08	642.4	695.4
0.08	11.04	18.07	642.7	695.3
0.09	11.05	18.07	642.2	695.2
0.1	11.05	18.04	642.3	695.3
0.11	11.05	18.02	642.3	695.3
0.12	11.05	17.99	642.4	695.2
0.13	11.05	17.97	642.4	695.5
0.14	11.06	17.96	642.2	695.2
0.15	11.06	17.93	642.4	695.2
0.16	11.05	17.91	642.1	695.4
0.17	11.06	17.89	642.2	695.3
0.18	11.06	17.86	642.2	695.2
0.19	11.06	17.85	642.2	695.3
0.2	11.06	17.84	642.1	695.3
0.21	11.07	17.82	642.4	695.2
0.22	11.08	17.82	642.4	695.3
0.23	11.07	17.79	642.2	695.3
0.24	11.07	17.77	642.3	695.3
0.25	11.06	17.75	642.4	695.4
0.26	11.07	17.73	642.2	695.5
0.27	11.06	17.71	642.4	695.2
0.28	11.06	17.69	642.2	695.4
0.29	11.06	17.68	642.4	695.3
0.3	11.06	17.66	642.5	695.4
0.31	11.06	17.65	642.2	695.3
0.32	11.07	17.64	642.3	695.3
0.33	11.06	17.62	642.4	695.4
0.34	11.08	17.61	642.4	695.3
0.35	11.06	17.59	642.2	695.2
0.36	11.06	17.57	642.3	695.4
0.37	11.06	17.56	642.4	695.5
0.38	11.06	17.53	642.4	695.4
0.39	11.05	17.51	642.2	695.2
0.4	11.06	17.49	642.3	695.3
0.41	11.05	17.48	642.3	695.4
0.42	11.06	17.47	642.3	695.1
0.43	11.06	17.46	642.3	695.3
0.44	11.06	17.44	642.6	695.2
0.45	11.07	17.43	642.4	695.2
0.46	11.07	17.4	642.3	695.3
0.47	11.06	17.38	642.5	695.2
0.48	11.07	17.39	642.3	695.2
0.49	11.06	17.35	642.2	695.2
0.5	11.06	17.34	642.3	695.3
0.51	11.06	17.32	642.2	695.4
0.52	11.06	17.32	642.3	695.4
0.53	11.07	17.31	642.3	695.2
0.54	11.06	17.28	642.3	695.5
0.55	11.06	17.26	642.2	695.5
0.56	11.06	17.25	642.5	695.4
0.57	11.06	17.23	642.4	695.3
0.58	11.05	17.21	642.3	695.5
0.59	11.05	17.19	642.2	695.4
0.6	11.06	17.19	642.3	695.2
0.61	11.07	17.18	642.4	695.2
0.62	11.06	17.16	642.2	695.1
0.63	11.07	17.14	642.4	695.4
0.64	11.06	17.12	642.3	695.6
0.65	11.06	17.11	642.4	695.3
0.66	11.06	17.09	642.2	695.3
0.67	11.06	17.08	642.4	695.5
0.68	11.07	17.07	642.2	695.4
0.69	11.07	17.05	642.4	695.3
0.7	11.05	17.02	642.3	695.4
0.71	11.06	17.01	642.2	695.3
0.72	11.06	16.99	642.3	695.3
0.73	11.06	16.97	642.2	695.2
0.74	11.08	16.99	642.4	695.4
0.75	11.07	16.96	642.1	695.2
0.76	11.07	16.94	642.1	695.3
0.77	11.06	16.92	642.4	695.3
0.78	11.07	16.91	642.3	695.3
0.79	11.06	16.89	642.5	695.4
0.8	11.08	16.89	642.3	695.3
0.81	11.06	16.85	642.5	695.4
0.82	11.06	16.84	642.0	695.2
0.83	11.06	16.82	642.2	695.4
0.84	11.08	16.83	642.5	695.3
0.85	11.06	16.81	642.2	695.5
0.86	11.06	16.79	642.3	695.2
0.87	11.06	16.78	642.3	695.5
0.88	11.06	16.76	642.3	695.3
0.89	11.06	16.76	642.1	695.4
0.9	11.07	16.73	642.5	695.4
0.91	11.07	16.72	642.6	695.4
0.92	11.07	16.71	642.4	695.3
0.93	11.05	16.68	642.5	695.4
0.94	11.07	16.68	642.3	695.2
0.95	11.06	16.66	642.4	695.3
0.96	11.06	16.64	642.2	695.3
0.97	11.06	16.63	642.3	695.3
0.98	11.08	16.64	642.3	695.3
0.99	11.06	16.61	642.3	695.4
1.0	11.06	16.59	642.2	695.2
1.01	11.07	16.59	642.4	695.3
1.02	11.06	16.56	642.3	695.4
1.03	11.06	16.54	642.4	695.4
1.04	11.06	16.53	642.4	695.2
1.05	11.07	16.53	642.1	695.1
1.06	11.06	16.51	642.3	695.4
1.07	11.06	16.49	642.2	695.3
1.08	11.06	16.47	642.3	695.4
1.09	11.06	16.46	642.4	695.3
1.1	11.08	16.47	642.6	695.2
1.11	11.06	16.45	642.2	695.4
1.12	11.06	16.41	642.5	695.5
1.13	11.06	16.4	642.2	695.5
1.14	11.05	16.38	642.4	695.3
1.15	11.07	16.39	642.6	695.2
1.16	11.07	16.37	642.3	695.3
1.17	11.08	16.38	642.5	695.3
1.18	11.07	16.36	642.4	695.4
1.19	11.07	16.34	642.6	695.2
1.2	11.07	16.33	642.1	695.2
1.21	11.07	16.3	642.2	695.6
1.22	11.05	16.27	642.2	695.4
1.23	11.07	16.27	642.3	695.4
1.24	11.05	16.25	642.3	695.4
1.25	11.05	16.23	642.3	695.3
1.26	11.05	16.22	642.1	695.4
1.27	11.06	16.21	642.3	695.3
1.28	11.06	16.2	642.5	695.4
1.29	11.06	16.19	642.2	695.4
1.3	11.06	16.17	642.4	695.4
1.31	11.06	16.16	642.4	695.3
1.32	11.05	16.14	642.2	695.2
1.33	11.06	16.13	642.3	695.5
1.34	11.06	16.12	642.1	695.4
1.35	11.07	16.11	642.4	695.2
1.36	11.08	16.12	642.2	695.2
1.37	11.07	16.09	642.2	695.1
1.38	11.06	16.07	642.1	695.2
1.39	11.05	16.05	642.5	695.2
1.4	11.06	16.03	642.1	695.4
1.41	11.07	16.03	642.3	695.3
1.42	11.07	16.04	642.4	695.3
1.43	11.07	16.01	642.4	695.5
1.44	11.06	15.99	642.2	695.4
1.45	11.06	15.97	642.2	695.2
1.46	11.06	15.97	642.4	695.4
1.47	11.06	15.95	642.5	695.4
1.48	11.07	15.95	642.3	695.3
1.49	11.07	15.93	642.5	695.3
1.5	11.05	15.89	642.1	695.2
1.51	11.06	15.9	642.4	695.2
1.52	11.06	15.88	642.4	695.4
1.53	11.05	15.86	642.3	695.4
1.54	11.05	15.85	642.3	695.3
1.55	11.06	15.84	642.3	695.3
1.56	11.06	15.82	642.4	695.4
1.57	11.06	15.81	642.2	695.5
1.58	11.06	15.8	642.3	695.3
1.59	11.06	15.79	642.3	695.2
1.6	11.07	15.78	642.2	695.2
1.61	11.06	15.76	642.3	695.5
1.62	11.08	15.77	642.3	695.1
1.63	11.06	15.74	642.3	695.2
1.64	11.07	15.73	642.4	695.2
1.65	11.08	15.72	642.2	695.1
1.66	11.07	15.7	642.3	695.3
1.67	11.07	15.68	642.2	695.4
1.68	11.06	15.67	642.4	695.3
1.69	11.05	15.65	642.4	695.7
1.7	11.06	15.63	642.3	695.4
1.71	11.06	15.62	642.3	695.4
1.72	11.08	15.62	642.6	695.3
1.73	11.06	15.6	642.2	695.5
1.74	11.06	15.58	642.4	695.4
1.75	11.05	15.56	642.4	695.2
1.76	11.06	15.55	642.4	695.3
1.77	11.06	15.55	642.2	695.3
1.78	11.06	15.52	642.3	695.3
1.79	11.06	15.51	642.5	695.4
1.8	11.06	15.5	642.3	695.5
1.81	11.06	15.48	642.3	695.3
1.82	11.07	15.49	642.5	695.4
1.83	11.07	15.46	642.1	695.5
1.84	11.06	15.44	642.5	695.3
1.85	11.07	15.44	642.4	695.3
1.86	11.06	15.41	642.3	695.3
1.87	11.06	15.41	642.3	695.4
1.88	11.07	15.39	642.3	695.5
1.89	11.06	15.37	642.4	695.2
1.9	11.07	15.38	642.1	695.3
1.91	11.06	15.35	642.2	695.3
1.92	11.06	15.34	642.4	695.1
1.93	11.06	15.33	642.2	695.3
1.94	11.06	15.3	642.2	695.5
1.95	11.06	15.3	642.3	695.4
1.96	11.05	15.28	642.4	695.3
1.97	11.05	15.26	642.2	695.4
1.98	11.05	15.25	642.2	695.4
1.99	11.06	15.24	642.4	695.2
2.0	11.05	15.22	642.5	695.2
2.01	11.07	15.22	642.3	695.4
2.02	11.06	15.2	642.3	695.1
2.03	11.06	15.18	642.3	695.5
2.04	11.05	15.16	642.3	695.2
2.05	11.07	15.16	642.4	695.3
2.06	11.06	15.14	642.4	695.5
2.07	11.05	15.12	642.2	695.2
2.08	11.07	15.13	642.1	695.4
2.09	11.07	15.1	642.3	695.4
2.1	11.06	15.09	642.4	695.2
2.11	11.06	15.08	642.4	695.3
2.12	11.06	15.06	642.4	695.4
2.13	11.07	15.05	642.5	695.1
2.14	11.06	15.03	642.3	695.4
2.15	11.06	15.02	642.4	695.6
2.16	11.07	15.02	642.3	695.4
2.17	11.06	14.99	642.3	695.4
2.18	11.06	14.98	642.3	695.4
2.19	11.07	14.97	642.4	695.5
2.2	11.06	14.95	642.3	695.4
2.21	11.06	14.94	642.2	695.4
2.22	11.05	14.92	642.2	695.3
2.23	11.06	14.91	642.4	695.4
2.24	11.07	14.91	642.0	695.2
2.25	11.06	14.88	642.3	695.3
2.26	11.06	14.88	642.3	695.2
2.27	11.05	14.85	642.6	695.3
2.28	11.06	14.85	642.3	695.3
2.29	11.05	14.83	642.4	695.3
2.3	11.06	14.81	642.4	695.4
2.31	11.05	14.8	642.2	695.6
2.32	11.07	14.79	642.4	695.4
2.33	11.06	14.78	642.3	695.3
2.34	11.07	14.76	642.4	695.6
2.35	11.06	14.74	642.4	695.4
2.36	11.06	14.73	642.4	695.4
2.37	11.05	14.71	642.2	695.3
2.38	11.07	14.71	642.2	695.5
2.39	11.07	14.7	642.3	695.5
2.4	11.07	14.69	642.3	695.2
2.41	11.06	14.66	642.3	695.1
2.42	11.06	14.65	642.3	695.3
2.43	11.05	14.63	642.5	695.5
2.44	11.06	14.63	642.1	695.2
2.45	11.08	14.63	642.2	695.3
2.46	11.06	14.59	642.5	695.5
2.47	11.06	14.58	642.1	695.3
2.48	11.06	14.56	642.4	695.3
2.49	11.05	14.55	642.4	695.3
2.5	11.06	14.54	642.2	695.1
2.51	11.06	14.53	642.1	695.5
2.52	11.06	14.51	642.2	695.2
2.53	11.06	14.5	642.1	695.3
2.54	11.05	14.48	642.3	695.3
2.55	11.07	14.48	642.2	695.6
2.56	11.05	14.45	642.3	695.3
2.57	11.07	14.45	642.5	695.3
2.58	11.07	14.44	643.5	695.3
2.59	11.06	14.41	644.8	695.3
2.6	11.07	14.42	646.6	695.1
2.61	11.07	14.39	649.0	695.3
2.62	11.06	14.38	649.7	695.2
2.63	11.06	14.36	651.1	695.4
2.64	11.05	14.34	653.8	695.3
2.65	11.07	14.35	654.6	695.2
2.66	11.06	14.33	657.0	695.3
2.67	11.07	14.31	658.0	695.3
2.68	11.07	14.3	658.6	695.2
2.69	11.08	14.28	660.7	695.5
2.7	11.05	14.27	663.0	695.6
2.71	11.07	14.25	664.1	695.2
2.72	11.05	14.23	665.4	695.4
2.73	11.05	14.22	666.5	695.2
2.74	11.05	14.2	668.1	695.3
2.75	11.07	14.2	669.5	695.2
2.76	11.06	14.19	671.2	695.2
2.77	11.06	14.18	672.4	695.3
2.78	11.07	14.18	673.5	695.3
2.79	11.06	14.14	675.4	695.3
2.8	11.06	14.12	677.0	695.4
2.81	11.07	14.13	678.2	695.2
2.82	11.05	14.1	679.5	695.3
2.83	11.06	14.08	680.7	695.6
2.84	11.06	14.07	682.5	695.1
2.85	11.05	14.07	683.9	695.8
2.86	11.06	14.05	685.3	695.9
2.87	11.05	14.03	686.2	695.5
2.88	11.06	14.02	688.0	697.9
2.89	11.06	14.0	689.6	700.3
2.9	11.05	13.98	691.0	701.9
2.91	11.06	13.97	692.2	702.9
2.92	11.05	13.95	693.4	700.4
2.93	11.05	13.95	694.3	705.7
2.94	11.07	13.95	696.1	707.3
2.95	11.06	13.93	697.2	708.3
2.96	11.07	13.93	698.4	707.4
2.97	11.07	13.91	699.8	709.0
2.98	11.06	13.88	700.6	713.2
2.99	11.07	13.88	701.3	714.4
3.0	11.07	13.86	702.5	715.5
3.01	11.05	13.85	703.7	712.9
3.02	11.07	13.83	704.4	717.8
3.03	11.06	13.81	705.5	719.7
3.04	11.06	13.8	706.6	720.6
3.05	11.05	13.78	707.4	719.8
3.06	11.07	13.78	708.4	720.3
3.07	11.06	13.77	708.9	725.4
3.08	11.05	13.74	710.2	726.0
3.09	11.06	13.74	711.4	726.8
3.1	11.07	13.73	712.6	724.6
3.11	11.06	13.71	713.3	729.6
3.12	11.06	13.7	714.6	730.7
3.13	11.07	13.69	715.2	732.4
3.14	11.08	13.68	716.6	731.0
3.15	11.08	13.67	718.0	731.8
3.16	11.07	13.65	718.7	735.6
3.17	11.07	13.64	720.0	736.8
3.18	11.08	13.62	720.7	737.8
3.19	11.07	13.61	721.6	735.5
3.2	11.08	13.6	723.4	740.5
3.21	11.07	13.58	724.3	741.9
3.22	11.06	13.57	725.3	742.2
3.23	11.08	13.56	726.4	742.4
3.24	11.08	13.55	728.0	743.9
3.25	11.08	13.54	729.4	746.7
3.26	11.07	13.52	730.4	747.9
3.27	11.08	13.51	732.1	749.2
3.28	11.08	13.49	733.5	747.2
3.29	11.07	13.48	734.5	751.8
3.3	11.06	13.45	735.7	752.6
3.31	11.05	13.43	736.8	753.8
3.32	11.04	13.41	738.0	753.7
3.33	11.05	13.4	739.0	753.6
3.34	11.05	13.39	740.5	757.8
3.35	11.06	13.39	741.6	758.4
3.36	11.06	13.37	742.5	759.1
3.37	11.05	13.36	744.1	757.6
3.38	11.06	13.35	745.3	761.5
3.39	11.06	13.33	746.5	763.6
3.4	11.06	13.31	747.9	764.3
3.41	11.07	13.31	749.0	765.0
3.42	11.07	13.3	750.0	763.8
3.43	11.07	13.29	751.2	767.6
3.44	11.05	13.25	752.2	768.5
3.45	11.07	13.25	753.2	769.8
3.46	11.07	13.26	754.8	768.1
3.47	11.09	13.25	755.7	772.4
3.48	11.07	13.23	756.8	772.9
3.49	11.07	13.21	757.8	774.0
3.5	11.08	13.2	759.2	774.1
3.51	11.07	13.18	760.1	774.5
3.52	11.05	13.15	761.0	777.7
3.53	11.06	13.15	762.0	778.3
3.54	11.05	13.13	763.1	779.4
3.55	11.05	13.13	763.8	777.9
3.56	11.06	13.12	764.2	780.4
3.57	11.06	13.1	765.4	783.2
3.58	11.06	13.09	766.2	783.8
3.59	11.06	13.07	767.1	784.3
3.6	11.05	13.05	767.8	782.9
3.61	11.07	13.07	768.7	787.2
3.62	11.06	13.03	769.4	788.0
3.63	11.06	13.03	770.3	788.2
3.64	11.06	13.0	771.2	787.4
3.65	11.06	13.0	771.9	790.5
3.66	11.07	12.99	773.2	791.2
3.67	11.06	12.96	774.4	793.1
3.68	11.07	12.97	775.4	793.1
3.69	11.05	12.94	776.7	792.8
3.7	11.07	12.94	777.8	796.5
3.71	11.07	12.93	778.7	797.2
3.72	11.07	12.92	779.9	797.5
3.73	11.06	12.89	781.0	796.8
3.74	11.06	12.88	781.6	799.3
3.75	11.05	12.86	782.7	801.2
3.76	11.07	12.86	783.6	801.9
3.77	11.06	12.85	784.6	802.6
3.78	11.07	12.83	785.5	802.2
3.79	11.06	12.82	786.8	805.6
3.8	11.06	12.8	787.6	805.6
3.81	11.05	12.78	788.6	805.9
3.82	11.06	12.77	789.8	805.1
3.83	11.06	12.77	790.7	809.1
3.84	11.07	12.77	791.7	810.0
3.85	11.05	12.74	793.3	810.7
3.86	11.05	12.72	793.8	810.9
3.87	11.06	12.71	795.0	811.0
3.88	11.06	12.7	795.8	813.8
3.89	11.06	12.69	796.6	814.7
3.9	11.07	12.68	797.1	815.7
3.91	11.05	12.66	798.0	814.8
3.92	11.06	12.65	798.4	817.7
3.93	11.06	12.64	799.2	818.1
3.94	11.06	12.63	799.9	819.0
3.95	11.07	12.62	800.9	818.8
3.96	11.06	12.6	801.6	819.4
3.97	11.06	12.59	802.0	822.1
3.98	11.05	12.57	803.2	822.3
3.99	11.05	12.56	804.0	823.5
4.0	11.07	12.56	804.9	822.3
4.01	11.06	12.54	805.8	825.5
4.02	11.06	12.53	806.8	825.4
4.03	11.06	12.52	807.9	826.9
4.04	11.05	12.5	808.9	826.8
4.05	11.06	12.5	809.8	827.6
4.06	11.06	12.48	810.8	829.7
4.07	11.05	12.46	811.6	830.4
4.08	11.05	12.45	812.6	831.0
4.09	11.05	12.43	813.7	830.1
4.1	11.07	12.44	814.5	833.0
4.11	11.06	12.42	815.1	833.7
4.12	11.05	12.4	816.1	834.5
4.13	11.06	12.39	816.8	834.0
4.14	11.05	12.38	817.8	834.7
4.15	11.07	12.38	818.6	837.8
4.16	11.06	12.36	819.4	837.7
4.17	11.06	12.35	820.5	838.5
4.18	11.06	12.34	821.4	837.4
4.19	11.06	12.32	821.9	840.6
4.2	11.06	12.32	822.5	841.0
4.21	11.07	12.3	823.4	841.7
4.22	11.06	12.28	823.9	841.7
4.23	11.07	12.28	825.0	843.0
4.24	11.06	12.27	825.5	844.7
4.25	11.06	12.25	826.3	845.6
4.26	11.06	12.24	827.0	845.7
4.27	11.07	12.23	827.8	844.7
4.28	11.07	12.22	828.8	848.0
4.29	11.06	12.2	829.8	848.6
4.3	11.07	12.19	830.2	849.0
4.31	11.06	12.18	831.0	848.3
4.32	11.07	12.17	831.8	850.9
4.33	11.06	12.15	832.8	852.0
4.34	11.06	12.14	833.8	852.3
4.35	11.06	12.14	834.4	852.4
4.36	11.07	12.13	835.0	853.2
4.37	11.05	12.1	836.2	855.0
4.38	11.07	12.1	837.0	855.7
4.39	11.05	12.08	837.7	856.1
4.4	11.07	12.07	838.6	855.6
4.41	11.05	12.06	839.6	858.6
4.42	11.05	12.04	840.2	858.7
4.43	11.05	12.03	841.6	859.4
4.44	11.06	12.03	841.8	859.1
4.45	11.05	12.01	842.6	861.0
4.46	11.06	12.0	843.2	862.1
4.47	11.05	11.99	843.8	862.4
4.48	11.07	11.99	844.6	862.6
4.49	11.06	11.98	845.2	862.5
4.5	11.06	11.95	845.7	865.0
4.51	11.06	11.95	846.6	865.5
4.52	11.07	11.94	847.2	866.1
4.53	11.06	11.93	847.7	865.7
4.54	11.07	11.92	848.6	867.5
4.55	11.06	11.91	849.4	868.3
4.56	11.06	11.88	850.0	869.0
4.57	11.05	11.88	850.7	869.1
4.58	11.07	11.87	851.7	868.9
4.59	11.06	11.86	852.4	871.8
4.6	11.06	11.85	853.3	872.2
4.61	11.06	11.83	854.0	871.7
4.62	11.06	11.83	854.8	871.5
4.63	11.06	11.81	855.5	874.7
4.64	11.06	11.8	856.0	875.3
4.65	11.06	11.79	857.2	875.3
4.66	11.05	11.78	858.0	874.9
4.67	11.06	11.77	858.4	877.0
4.68	11.05	11.76	859.3	877.9
4.69	11.06	11.74	859.8	878.3
4.7	11.05	11.73	860.4	878.9
4.71	11.06	11.72	860.7	878.4
4.72	11.06	11.71	861.3	880.7
4.73	11.06	11.69	862.1	881.0
4.74	11.06	11.69	863.0	881.1
4.75	11.08	11.69	863.5	881.0
4.76	11.05	11.67	864.4	883.4
4.77	11.07	11.65	865.0	883.7
4.78	11.06	11.65	865.8	883.9
4.79	11.06	11.63	866.4	883.9
4.8	11.05	11.62	867.0	885.4
4.81	11.06	11.61	867.7	886.6
4.82	11.07	11.6	868.8	886.8
4.83	11.06	11.59	869.2	887.6
4.84	11.06	11.58	869.8	887.2
4.85	11.07	11.57	870.6	889.7
4.86	11.05	11.56	871.3	890.1
4.87	11.06	11.56	871.8	890.9
4.88	11.06	11.54	872.5	889.5
4.89	11.06	11.52	873.4	891.9
4.9	11.06	11.52	873.9	892.6
4.91	11.06	11.51	874.0	893.0
4.92	11.06	11.5	874.4	893.3
4.93	11.06	11.49	875.3	893.6
4.94	11.05	11.47	875.5	895.3
4.95	11.06	11.47	876.2	895.8
4.96	11.06	11.46	877.3	896.5
4.97	11.06	11.44	877.6	896.1
4.98	11.06	11.43	878.3	898.0
4.99	11.06	11.42	878.8	898.5
5.0	11.06	11.41	879.6	898.9
5.01	11.06	11.41	880.8	898.7
5.02	11.07	11.39	881.1	900.0
5.03	11.06	11.38	882.0	900.4
5.04	11.07	11.37	882.5	901.3
5.05	11.07	11.37	882.9	902.5
5.06	11.06	11.35	883.5	901.8
5.07	11.06	11.34	884.0	903.7
5.08	11.07	11.34	884.8	904.3
5.09	11.05	11.32	885.3	905.1
5.1	11.05	11.3	885.7	904.1
5.11	11.05	11.3	886.3	905.8
5.12	11.06	11.29	886.8	906.4
5.13	11.05	11.28	887.0	906.9
5.14	11.06	11.27	887.6	907.2
5.15	11.05	11.25	888.0	907.6
5.16	11.05	11.24	888.6	908.9
5.17	11.06	11.24	889.4	909.1
5.18	11.05	11.22	889.7	909.5
5.19	11.05	11.21	890.4	909.3
5.2	11.06	11.21	891.2	911.2
5.21	11.05	11.2	891.4	911.3
5.22	11.09	11.2	892.2	911.5
5.23	11.06	11.18	892.9	911.5
5.24	11.06	11.17	893.6	913.5
5.25	11.07	11.17	894.2	913.4
5.26	11.07	11.15	894.7	914.7
5.27	11.07	11.15	895.3	914.8
5.28	11.06	11.13	896.1	915.5
5.29	11.06	11.12	896.7	916.0
5.3	11.07	11.11	897.4	916.3
5.31	11.06	11.09	897.5	916.8
5.32	11.07	11.09	898.3	917.1
5.33	11.06	11.07	898.4	918.5
5.34	11.07	11.07	898.8	918.5
5.35	11.06	11.06	899.2	919.3
5.36	11.05	11.04	899.9	919.0
5.37	11.06	11.04	900.4	920.4
5.38	11.05	11.02	901.0	920.7
5.39	11.06	11.02	901.3	921.4
5.4	11.07	11.02	901.8	921.5
5.41	11.05	11.0	902.2	922.5
5.42	11.05	10.99	902.7	923.2
5.43	11.06	10.98	903.2	924.3
5.44	11.06	10.97	903.6	924.1
5.45	11.07	10.97	904.1	924.5
5.46	11.05	10.95	904.9	925.2
5.47	11.06	10.94	905.1	925.6
5.48	11.06	10.94	905.2	925.7
5.49	11.06	10.92	905.6	926.0
5.5	11.05	10.91	906.3	926.7
5.51	11.06	10.9	906.4	926.9
5.52	11.06	10.9	907.0	928.2
5.53	11.07	10.89	907.3	928.0
5.54	11.05	10.87	907.4	929.2
5.55	11.07	10.87	907.7	929.9
5.56	11.06	10.85	908.1	929.8
5.57	11.07	10.85	908.2	930.1
5.58	11.07	10.84	908.4	930.2
5.59	11.07	10.83	908.6	931.5
5.6	11.07	10.83	908.8	932.2
5.61	11.06	10.82	909.2	932.7
5.62	11.04	10.79	909.5	932.3
5.63	11.06	10.79	910.1	933.8
5.64	11.07	10.79	910.6	934.2
5.65	11.06	10.78	910.7	934.3
5.66	11.07	10.76	911.6	934.1
5.67	11.05	10.75	911.9	935.5
5.68	11.06	10.75	912.5	935.9
5.69	11.06	10.74	913.0	936.4
5.7	11.06	10.73	913.6	936.4
5.71	11.06	10.73	914.0	936.0
5.72	11.06	10.71	914.8	938.2
5.73	11.05	10.69	915.1	937.9
5.74	11.05	10.68	915.9	938.3
5.75	11.06	10.68	916.2	938.4
5.76	11.08	10.68	916.5	940.0
5.77	11.05	10.66	917.2	940.2
5.78	11.05	10.64	917.5	940.4
5.79	11.06	10.64	917.9	940.5
5.8	11.07	10.64	918.2	941.4
5.81	11.07	10.64	918.5	942.0
5.82	11.06	10.62	919.0	942.6
5.83	11.06	10.61	919.3	942.7
5.84	11.06	10.6	919.9	941.6
5.85	11.06	10.6	920.3	943.8
5.86	11.06	10.58	920.6	944.2
5.87	11.07	10.57	921.2	944.5
5.88	11.06	10.56	921.4	943.9
5.89	11.06	10.56	921.5	945.5
5.9	11.06	10.54	922.3	945.9
5.91	11.05	10.53	922.6	946.4
5.92	11.07	10.54	923.0	946.2
5.93	11.05	10.52	923.3	946.4
5.94	11.07	10.52	923.8	947.2
5.95	11.05	10.5	924.1	948.0
5.96	11.07	10.5	924.4	948.4
5.97	11.06	10.49	924.7	948.0
5.98	11.06	10.48	925.2	949.5
5.99	11.06	10.47	925.7	949.4
6.0	11.06	10.46	925.8	949.7
6.01	11.05	10.45	926.2	949.6
6.02	11.05	10.44	926.4	950.8
6.03	11.06	10.44	926.5	951.3
6.04	11.05	10.43	927.3	951.9
6.05	11.05	10.41	927.4	952.2
6.06	11.05	10.4	927.6	951.9
6.07	11.07	10.41	928.2	953.1
6.08	11.05	10.39	928.3	953.2
6.09	11.06	10.38	928.9	953.7
6.1	11.05	10.38	929.2	953.7
6.11	11.07	10.36	929.5	955.2
6.12	11.05	10.36	929.8	954.9
6.13	11.05	10.34	930.0	954.8
6.14	11.05	10.34	931.0	955.2
6.15	11.06	10.33	931.4	956.7
6.16	11.05	10.32	931.8	956.9
6.17	11.05	10.31	931.9	957.0
6.18	11.05	10.31	932.5	956.7
6.19	11.05	10.3	933.0	957.6
6.2	11.06	10.29	933.6	958.7
6.21	11.06	10.28	933.9	958.7
6.22	11.05	10.28	933.9	958.9
6.23	11.06	10.28	934.3	958.4
6.24	11.05	10.25	934.5	960.0
6.25	11.08	10.27	934.5	959.8
6.26	11.06	10.24	935.2	960.3
6.27	11.08	10.26	935.5	959.9
6.28	11.06	10.23	936.1	961.6
6.29	11.08	10.23	936.6	961.8
6.3	11.06	10.21	936.8	961.7
6.31	11.08	10.22	937.0	962.2
6.32	11.06	10.2	937.5	962.8
6.33	11.08	10.2	938.1	963.7
6.34	11.06	10.18	938.5	963.7
6.35	11.07	10.18	938.9	964.3
6.36	11.07	10.17	939.5	963.5
6.37	11.05	10.14	939.8	964.7
6.38	11.07	10.15	940.2	964.8
6.39	11.05	10.13	940.1	965.5
6.4	11.06	10.13	940.7	965.0
6.41	11.08	10.14	941.1	966.1
6.42	11.06	10.11	941.4	966.6
6.43	11.07	10.12	941.7	966.2
6.44	11.06	10.1	941.6	965.8
6.45	11.05	10.09	942.1	967.5
6.46	11.06	10.09	942.1	967.6
6.47	11.04	10.07	942.2	968.4
6.48	11.06	10.06	942.6	968.5
6.49	11.07	10.07	942.7	968.7
6.5	11.05	10.05	943.5	969.2
6.51	11.05	10.04	943.7	969.2
6.52	11.06	10.04	943.9	969.7
6.53	11.06	10.04	944.4	969.5
6.54	11.05	10.02	944.9	970.3
6.55	11.05	10.01	945.2	970.7
6.56	11.07	10.01	945.9	970.6
6.57	11.06	10.0	946.2	970.7
6.58	11.06	9.99	946.5	971.9
6.59	11.07	9.99	946.7	972.0
6.6	11.07	9.99	947.5	972.7
6.61	11.07	9.97	947.5	972.5
6.62	11.06	9.96	947.8	972.7
6.63	11.05	9.95	948.0	973.4
6.64	11.07	9.95	948.6	973.9
6.65	11.06	9.95	948.7	974.1
6.66	11.06	9.94	949.1	973.4
6.67	11.05	9.92	949.0	974.6
6.68	11.05	9.9	949.1	975.2
6.69	11.06	9.91	949.4	976.0
6.7	11.07	9.91	949.5	975.7
6.71	11.08	9.91	949.8	976.4
6.72	11.05	9.88	950.1	976.4
6.73	11.05	9.87	950.2	976.6
6.74	11.05	9.87	950.8	976.5
6.75	11.05	9.86	950.8	976.4
6.76	11.06	9.86	951.1	977.8
6.77	11.08	9.86	951.2	978.5
6.78	11.07	9.85	951.6	978.9
6.79	11.08	9.85	951.8	978.1
6.8	11.07	9.84	952.1	979.0
6.81	11.07	9.83	952.1	979.7
6.82	11.05	9.81	952.6	979.6
6.83	11.06	9.8	952.9	979.4
6.84	11.05	9.79	953.4	980.3
6.85	11.06	9.79	953.6	981.0
6.86	11.06	9.79	954.0	981.0
6.87	11.07	9.79	954.2	981.4
6.88	11.07	9.78	954.4	981.4
6.89	11.06	9.77	954.8	981.7
6.9	11.05	9.75	954.9	982.3
6.91	11.04	9.74	955.3	982.4
6.92	11.05	9.74	955.2	982.3
6.93	11.06	9.73	955.5	983.5
6.94	11.06	9.73	955.9	983.0
6.95	11.06	9.72	955.7	983.2
6.96	11.07	9.72	956.0	983.5
6.97	11.07	9.72	956.0	984.5
6.98	11.07	9.71	956.5	984.4
6.99	11.05	9.69	956.6	984.8
7.0	11.05	9.68	957.3	984.4
7.01	11.05	9.67	957.7	985.3
7.02	11.04	9.66	958.0	986.0
7.03	11.05	9.66	958.2	986.3
7.04	11.05	9.66	958.7	986.2
7.05	11.06	9.66	958.8	986.2
7.06	11.07	9.66	959.3	987.4
7.07	11.07	9.64	959.4	987.0
7.08	11.07	9.64	959.9	987.6
7.09	11.05	9.62	960.4	987.1
7.1	11.06	9.61	960.4	988.1
7.11	11.04	9.6	960.7	988.3
7.12	11.05	9.59	961.2	988.8
7.13	11.05	9.59	961.3	988.9
7.14	11.06	9.59	961.5	988.8
7.15	11.06	9.58	961.8	989.8
7.16	11.08	9.59	962.1	989.7
7.17	11.07	9.57	962.4	990.3
7.18	11.08	9.58	962.4	990.2
7.19	11.06	9.56	962.5	990.8
7.2	11.06	9.56	962.7	991.4
7.21	11.07	9.55	962.6	991.4
7.22	11.06	9.53	963.1	991.2
7.23	11.05	9.52	963.4	991.6
7.24	11.05	9.51	963.8	992.1
7.25	11.04	9.51	963.7	992.4
7.26	11.05	9.51	964.4	993.1
7.27	11.05	9.49	964.4	992.7
7.28	11.05	9.49	964.7	993.6
7.29	11.04	9.48	964.8	993.6
7.3	11.05	9.48	965.2	993.5
7.31	11.06	9.48	965.1	993.4
7.32	11.06	9.47	965.4	994.3
7.33	11.06	9.46	965.6	994.2
7.34	11.06	9.45	966.0	994.9
7.35	11.05	9.45	966.3	994.7
7.36	11.06	9.44	966.6	995.6
7.37	11.05	9.43	966.7	995.6
7.38	11.04	9.42	967.0	995.8
7.39	11.06	9.42	967.2	996.0
7.4	11.06	9.41	967.4	996.0
7.41	11.06	9.41	967.5	996.7
7.42	11.06	9.41	968.0	997.1
7.43	11.06	9.4	968.3	997.5
7.44	11.07	9.4	968.4	997.2
7.45	11.08	9.4	968.2	998.0
7.46	11.08	9.39	968.4	997.9
7.47	11.07	9.39	968.4	998.1
7.48	11.07	9.38	968.8	998.1
7.49	11.08	9.37	968.8	998.1
7.5	11.05	9.36	969.5	999.0
7.51	11.06	9.35	969.7	998.6
7.52	11.06	9.34	970.0	998.9
7.53	11.05	9.33	969.9	999.2
7.54	11.04	9.32	970.4	1000.0
7.55	11.05	9.32	970.3	1000.3
7.56	11.04	9.31	971.0	1000.6
7.57	11.04	9.3	970.8	1000.5
7.58	11.05	9.3	971.2	1001.1
7.59	11.05	9.29	971.2	1001.2
7.6	11.05	9.29	971.8	1001.4
7.61	11.06	9.29	971.9	1001.6
7.62	11.05	9.28	972.1	1001.3
7.63	11.06	9.28	972.4	1001.8
7.64	11.07	9.28	972.8	1002.3
7.65	11.08	9.28	972.9	1002.6
7.66	11.06	9.26	973.3	1001.9
7.67	11.06	9.25	973.4	1002.8
7.68	11.05	9.24	973.6	1003.2
7.69	11.05	9.23	974.0	1003.6
7.7	11.05	9.23	974.0	1003.2
7.71	11.04	9.21	974.2	1004.0
7.72	11.06	9.22	974.0	1004.4
7.73	11.07	9.23	974.2	1004.0
7.74	11.07	9.22	974.5	1004.7
7.75	11.07	9.21	974.8	1005.1
7.76	11.06	9.19	974.9	1005.4
7.77	11.04	9.19	974.8	1005.9
7.78	11.05	9.18	975.4	1005.5
7.79	11.04	9.17	975.7	1005.3
7.8	11.06	9.18	975.9	1006.4
7.81	11.06	9.18	976.0	1005.9
7.82	11.07	9.17	976.6	1006.4
7.83	11.06	9.16	976.3	1006.6
7.84	11.05	9.14	976.8	1006.6
7.85	11.06	9.15	976.9	1007.0
7.86	11.08	9.15	977.2	1007.3
7.87	11.06	9.14	977.3	1007.4
7.88	11.06	9.13	977.7	1007.8
7.89	11.05	9.11	977.5	1008.6
7.9	11.06	9.11	978.0	1008.1
7.91	11.06	9.11	977.7	1008.6
7.92	11.07	9.11	978.2	1008.3
7.93	11.07	9.11	978.2	1008.6
7.94	11.07	9.1	978.6	1009.0
7.95	11.05	9.09	978.3	1009.4
7.96	11.05	9.07	978.6	1009.4
7.97	11.05	9.07	978.6	1009.3
7.98	11.07	9.07	978.9	1010.0
7.99	11.06	9.07	978.7	1010.3
8.0	11.06	9.06	979.2	1010.4
8.01	11.04	9.05	979.3	1010.2
8.02	11.05	9.05	979.9	1011.4
8.03	11.07	9.05	979.8	1011.4
8.04	11.07	9.05	980.0	1011.5
8.05	11.05	9.03	979.9	1011.0
8.06	11.05	9.02	980.2	1011.6
8.07	11.06	9.02	979.8	1012.0
8.08	11.07	9.02	980.4	1012.6
8.09	11.06	9.01	980.8	1012.8
8.1	11.05	9.0	981.0	1012.1
8.11	11.06	9.0	981.0	1013.0
8.12	11.06	9.0	981.2	1012.8
8.13	11.06	8.99	981.2	1013.3
8.14	11.06	8.98	981.6	1013.1
8.15	11.05	8.97	981.5	1014.5
8.16	11.06	8.97	982.0	1014.3
8.17	11.08	8.98	982.0	1014.2
8.18	11.08	8.97	982.2	1014.6
8.19	11.08	8.96	982.2	1014.9
8.2	11.05	8.95	982.8	1015.2
8.21	11.06	8.94	982.4	1015.1
8.22	11.07	8.94	982.8	1015.4
8.23	11.08	8.94	982.7	1015.2
8.24	11.06	8.93	983.1	1015.9
8.25	11.06	8.92	983.0	1016.0
8.26	11.06	8.92	983.3	1016.5
8.27	11.07	8.92	983.7	1016.0
8.28	11.05	8.9	983.9	1016.7
8.29	11.06	8.9	984.0	1016.8
8.3	11.06	8.9	984.0	1017.1
8.31	11.06	8.89	983.8	1017.0
8.32	11.05	8.88	984.2	1017.0
8.33	11.07	8.88	984.2	1017.6
8.34	11.05	8.87	984.4	1017.8
8.35	11.06	8.87	984.7	1017.8
8.36	11.06	8.87	984.7	1017.8
8.37	11.06	8.86	984.3	1018.3
8.38	11.05	8.85	984.8	1018.4
8.39	11.06	8.85	984.6	1018.7
8.4	11.06	8.85	984.8	1018.6
8.41	11.06	8.83	984.9	1019.1
8.42	11.06	8.84	985.1	1019.4
8.43	11.07	8.83	985.0	1019.5
8.44	11.06	8.82	985.3	1019.2
8.45	11.06	8.81	985.0	1019.3
8.46	11.06	8.81	985.3	1020.2
8.47	11.05	8.8	985.4	1019.8
8.48	11.05	8.79	985.5	1020.1
8.49	11.07	8.8	985.4	1020.0
8.5	11.06	8.79	985.9	1020.7
8.51	11.05	8.78	985.9	1021.0
8.52	11.07	8.79	986.1	1021.4
8.53	11.06	8.78	986.3	1021.1
8.54	11.05	8.77	986.3	1021.4
8.55	11.06	8.78	986.3	1021.8
8.56	11.06	8.76	986.8	1021.9
8.57	11.06	8.76	986.8	1021.8
8.58	11.07	8.76	987.0	1021.2
8.59	11.06	8.74	987.3	1021.7
8.6	11.06	8.74	987.6	1022.3
8.61	11.05	8.73	987.6	1022.8
8.62	11.05	8.73	987.7	1022.0
8.63	11.06	8.73	988.2	1023.0
8.64	11.06	8.71	988.3	1023.0
8.65	11.06	8.72	988.0	1023.2
8.66	11.07	8.71	988.6	1022.9
8.67	11.05	8.7	988.8	1023.5
8.68	11.07	8.71	989.0	1024.2
8.69	11.04	8.69	988.8	1024.2
8.7	11.07	8.69	989.3	1024.4
8.71	11.06	8.69	989.3	1024.4
8.72	11.06	8.68	989.4	1025.5
8.73	11.06	8.68	989.6	1025.2
8.74	11.07	8.67	989.4	1025.1
8.75	11.07	8.67	990.0	1024.5
8.76	11.07	8.67	989.9	1026.1
8.77	11.05	8.66	989.9	1025.5
8.78	11.06	8.66	990.0	1026.2
8.79	11.06	8.65	990.3	1025.7
8.8	11.06	8.65	990.7	1026.2
8.81	11.06	8.64	990.5	1026.7
8.82	11.06	8.64	990.8	1027.0
8.83	11.05	8.63	990.8	1026.6
8.84	11.06	8.63	991.4	1026.4
8.85	11.06	8.62	991.1	1027.7
8.86	11.06	8.62	991.8	1027.9
8.87	11.07	8.62	991.6	1027.8
8.88	11.04	8.59	991.5	1027.6
8.89	11.07	8.6	991.7	1028.4
8.9	11.05	8.59	992.0	1028.1
8.91	11.06	8.59	992.1	1028.2
8.92	11.06	8.59	992.2	1027.9
8.93	11.06	8.58	992.6	1028.4
8.94	11.06	8.58	992.7	1028.6
8.95	11.06	8.58	992.5	1028.2
8.96	11.06	8.57	993.0	1028.9
8.97	11.08	8.57	993.1	1029.1
8.98	11.06	8.56	993.1	1029.3
8.99	11.07	8.56	993.3	1029.7
9.0	11.06	8.55	993.6	1029.8
9.01	11.07	8.55	993.7	1029.8
9.02	11.07	8.55	993.9	1030.3
9.03	11.07	8.54	993.4	1030.2
9.04	11.06	8.54	993.7	1030.3
9.05	11.06	8.53	993.6	1029.7
9.06	11.06	8.52	994.0	1030.4
9.07	11.06	8.52	994.0	1030.4
9.08	11.05	8.51	994.4	1030.5
9.09	11.05	8.51	994.5	1030.5
9.1	11.06	8.51	994.5	1030.7
9.11	11.06	8.5	994.5	1031.6
9.12	11.06	8.5	994.7	1031.6
9.13	11.06	8.49	994.6	1031.5
9.14	11.06	8.49	994.5	1031.2
9.15	11.06	8.48	994.8	1032.0
9.16	11.06	8.48	994.8	1031.8
9.17	11.06	8.47	995.0	1032.2
9.18	11.06	8.47	994.9	1032.0
9.19	11.05	8.46	994.8	1032.2
9.2	11.07	8.47	995.2	1032.7
9.21	11.04	8.45	995.2	1033.0
9.22	11.06	8.45	995.4	1033.2
9.23	11.07	8.45	995.2	1032.5
9.24	11.06	8.44	995.6	1033.2
9.25	11.06	8.44	995.6	1033.0
9.26	11.06	8.44	996.1	1033.9
9.27	11.06	8.43	996.1	1033.4
9.28	11.06	8.42	996.3	1034.3
9.29	11.06	8.42	996.1	1033.8
9.3	11.06	8.42	996.4	1034.2
9.31	11.06	8.41	996.5	1033.4
9.32	11.07	8.41	996.5	1034.3
9.33	11.06	8.41	996.5	1035.0
9.34	11.07	8.4	997.1	1035.1
9.35	11.05	8.39	997.1	1035.0
9.36	11.07	8.39	997.1	1035.0
9.37	11.06	8.39	996.8	1035.8
9.38	11.07	8.38	997.3	1035.8
9.39	11.05	8.37	997.2	1035.0
9.4	11.05	8.37	997.5	1035.3
9.41	11.06	8.37	997.6	1036.2
9.42	11.05	8.36	997.7	1036.4
9.43	11.06	8.36	997.8	1036.4
9.44	11.06	8.36	997.9	1036.1
9.45	11.06	8.35	998.1	1036.9
9.46	11.07	8.35	998.5	1036.8
9.47	11.05	8.34	998.3	1036.9
9.48	11.07	8.34	998.5	1037.2
9.49	11.06	8.34	998.5	1037.2
9.5	11.07	8.33	998.6	1037.5
9.51	11.07	8.33	998.8	1037.3
9.52	11.06	8.33	998.7	1037.9
9.53	11.07	8.32	998.8	1037.6
9.54	11.06	8.31	999.0	1038.1
9.55	11.06	8.31	999.1	1038.1
9.56	11.06	8.31	999.4	1037.9
9.57	11.07	8.31	998.9	1037.6
9.58	11.06	8.3	999.3	1038.7
9.59	11.07	8.3	999.4	1038.5
9.6	11.06	8.29	999.6	1038.7
9.61	11.05	8.29	999.4	1038.3
9.62	11.06	8.28	999.7	1038.1
9.63	11.06	8.27	999.7	1038.6
9.64	11.06	8.27	999.7	1039.0
9.65	11.06	8.27	999.8	1038.8
9.66	11.05	8.27	1000.1	1038.7
9.67	11.06	8.26	999.9	1039.9
9.68	11.05	8.26	1000.2	1039.3
9.69	11.06	8.25	1000.2	1039.6
9.7	11.05	8.25	1000.4	1040.0
9.71	11.06	8.24	1000.4	1040.1
9.72	11.06	8.25	1001.0	1040.4
9.73	11.07	8.24	1000.6	1040.4
9.74	11.06	8.24	1000.6	1040.2
9.75	11.06	8.23	1000.7	1040.7
9.76	11.06	8.23	1001.0	1041.4
9.77	11.07	8.23	1001.2	1041.6
9.78	11.05	8.22	1001.2	1041.5
9.79	11.06	8.22	1001.2	1041.4
9.8	11.06	8.21	1001.6	1041.8
9.81	11.05	8.2	1001.6	1041.8
9.82	11.06	8.2	1002.0	1042.2
9.83	11.06	8.2	1001.5	1041.6
9.84	11.06	8.19	1001.8	1043.1
9.85	11.05	8.19	1001.8	1043.3
9.86	11.06	8.19	1002.0	1043.0
9.87	11.05	8.18	1002.2	1042.3
9.88	11.06	8.19	1002.0	1042.8
9.89	11.06	8.17	1002.4	1043.6
9.9	11.06	8.17	1002.2	1043.6
9.91	11.05	8.17	1002.6	1043.2
9.92	11.07	8.17	1002.5	1043.4
9.93	11.06	8.17	1002.5	1043.6
9.94	11.05	8.15	1002.8	1043.5
9.95	11.06	8.16	1002.9	1043.9
9.96	11.07	8.15	1003.1	1043.5
9.97	11.06	8.14	1002.8	1044.3
9.98	11.06	8.14	1003.3	1044.4
9.99	11.06	8.14	1003.0	1044.2
10.0	11.07	8.14	1003.2	1044.3
10.01	11.06	8.13	1003.2	1044.7
10.02	11.05	8.12	1003.8	1044.6
10.03	11.06	8.12	1003.4	1045.2
10.04	11.06	8.12	1003.7	1045.4
10.05	11.06	8.12	1003.5	1044.7
10.06	11.06	8.11	1003.9	1046.2
10.07	11.06	8.11	1003.7	1045.8
10.08	11.07	8.11	1003.8	1045.9
10.09	11.06	8.1	1004.0	1045.7
10.1	11.07	8.1	1004.1	1046.0
10.11	11.06	8.09	1004.0	1046.2
10.12	11.06	8.09	1004.3	1046.5
10.13	11.06	8.09	1004.2	1045.9
10.14	11.06	8.08	1004.6	1046.3
10.15	11.06	8.08	1004.0	1046.8
10.16	11.07	8.08	1004.3	1047.4
10.17	11.06	8.07	1004.5	1047.3
10.18	11.07	8.07	1004.3	1046.7
10.19	11.06	8.06	1004.3	1047.6
10.2	11.05	8.05	1004.5	1047.4
10.21	11.06	8.06	1004.4	1047.7
10.22	11.06	8.05	1004.8	1047.4
10.23	11.07	8.05	1004.6	1048.2
10.24	11.06	8.05	1004.8	1048.3
10.25	11.06	8.04	1004.6	1048.2
10.26	11.06	8.04	1004.8	1047.5
10.27	11.06	8.04	1004.9	1048.0
10.28	11.07	8.03	1005.3	1048.4
10.29	11.07	8.03	1004.9	1048.3
10.3	11.06	8.03	1005.0	1048.3
10.31	11.06	8.02	1005.2	1048.2
10.32	11.07	8.02	1005.6	1049.1
10.33	11.05	8.01	1005.3	1049.2
10.34	11.05	8.01	1005.7	1049.2
10.35	11.06	8.01	1005.6	1049.0
10.36	11.06	8.01	1006.0	1049.9
10.37	11.07	8.01	1005.6	1049.5
10.38	11.06	8.0	1006.0	1049.4
10.39	11.06	7.99	1005.7	1049.1
10.4	11.05	7.99	1005.8	1049.1
10.41	11.06	7.98	1005.8	1050.0
10.42	11.06	7.99	1005.9	1049.9
10.43	11.07	7.98	1006.0	1050.8
10.44	11.06	7.97	1006.3	1049.9
10.45	11.06	7.97	1006.2	1050.2
10.46	11.05	7.96	1006.3	1050.5
10.47	11.07	7.96	1006.2	1050.3
10.48	11.05	7.96	1006.2	1050.5
10.49	11.07	7.96	1006.3	1050.7
10.5	11.06	7.96	1006.6	1051.1
10.51	11.07	7.95	1006.4	1051.1
10.52	11.07	7.95	1006.7	1050.4
10.53	11.06	7.94	1006.6	1051.4
10.54	11.06	7.94	1006.6	1052.2
10.55	11.07	7.94	1006.7	1051.8
10.56	11.06	7.93	1006.9	1051.6
10.57	11.06	7.93	1007.1	1051.5
10.58	11.06	7.93	1007.0	1052.2
10.59	11.06	7.92	1007.0	1051.6
10.6	11.06	7.92	1007.1	1052.4
10.61	11.06	7.92	1007.4	1051.7
10.62	11.06	7.91	1007.8	1052.4
10.63	11.06	7.92	1007.5	1052.6
10.64	11.05	7.9	1007.4	1052.8
10.65	11.06	7.9	1007.7	1052.8
10.66	11.06	7.9	1007.7	1052.5
10.67	11.06	7.9	1007.7	1052.7
10.68	11.06	7.89	1008.1	1053.1
10.69	11.06	7.89	1008.3	1053.2
10.7	11.06	7.89	1008.2	1053.1
10.71	11.05	7.88	1007.7	1053.9
10.72	11.06	7.88	1008.1	1053.7
10.73	11.05	7.88	1008.1	1053.9
10.74	11.06	7.87	1008.0	1053.6
10.75	11.06	7.87	1008.1	1054.1
10.76	11.06	7.87	1008.4	1054.6
10.77	11.06	7.86	1008.3	1054.3
10.78	11.07	7.86	1008.5	1054.3
10.79	11.05	7.85	1008.4	1054.1
10.8	11.06	7.85	1008.5	1055.0
10.81	11.06	7.85	1008.3	1054.4
10.82	11.06	7.84	1008.7	1054.4
10.83	11.06	7.85	1008.7	1054.9
10.84	11.06	7.84	1008.7	1055.5
10.85	11.05	7.84	1008.6	1055.1
10.86	11.06	7.84	1009.0	1055.4
10.87	11.05	7.83	1008.9	1054.7
10.88	11.07	7.84	1008.9	1055.9
10.89	11.07	7.83	1009.2	1055.3
10.9	11.06	7.83	1009.4	1055.9
10.91	11.06	7.82	1009.0	1055.8
10.92	11.07	7.82	1009.3	1055.1
10.93	11.07	7.82	1009.4	1056.2
10.94	11.07	7.82	1009.1	1056.3
10.95	11.06	7.81	1009.2	1056.3
10.96	11.06	7.81	1009.5	1055.4
10.97	11.06	7.8	1009.2	1056.4
10.98	11.05	7.8	1009.6	1056.2
10.99	11.06	7.79	1009.5	1056.4
11.0	11.05	7.78	1009.5	1056.3
11.01	11.05	7.78	1009.5	1056.7
11.02	11.05	7.78	1009.7	1057.2
11.03	11.06	7.78	1009.9	1057.0
11.04	11.07	7.78	1009.9	1056.6
11.05	11.06	7.77	1009.9	1057.0
11.06	11.07	7.77	1010.1	1057.6
11.07	11.07	7.77	1009.8	1057.5
11.08	11.06	7.77	1010.0	1057.8
11.09	11.08	7.77	1009.9	1057.2
11.1	11.07	7.76	1010.2	1058.1
11.11	11.06	7.76	1010.2	1058.1
11.12	11.06	7.75	1010.4	1058.0
11.13	11.06	7.75	1009.8	1058.0
11.14	11.06	7.75	1010.4	1058.4
11.15	11.06	7.74	1010.4	1058.7
11.16	11.05	7.74	1010.6	1058.7
11.17	11.07	7.74	1010.7	1058.0
11.18	11.05	7.73	1010.6	1058.7
11.19	11.06	7.73	1010.9	1059.0
11.2	11.06	7.73	1010.7	1058.9
11.21	11.07	7.73	1011.0	1058.7
11.22	11.06	7.72	1010.8	1059.0
11.23	11.05	7.71	1010.6	1059.4
11.24	11.06	7.72	1011.2	1059.6
11.25	11.07	7.72	1011.1	1059.6
11.26	11.06	7.71	1011.1	1059.9
11.27	11.07	7.71	1011.1	1059.5
11.28	11.06	7.7	1011.3	1060.3
11.29	11.05	7.7	1011.4	1060.1
11.3	11.06	7.7	1011.7	1060.2
11.31	11.06	7.7	1011.3	1059.3
11.32	11.05	7.69	1011.8	1060.7
11.33	11.05	7.68	1011.5	1060.4
11.34	11.06	7.68	1011.5	1060.6
11.35	11.05	7.68	1011.8	1060.5
11.36	11.06	7.68	1011.6	1061.4
11.37	11.06	7.68	1011.8	1060.9
11.38	11.06	7.68	1011.9	1061.2
11.39	11.04	7.67	1011.9	1061.0
11.4	11.06	7.67	1012.1	1060.4
11.41	11.05	7.66	1012.0	1061.2
11.42	11.06	7.66	1012.0	1061.6
11.43	11.06	7.66	1012.0	1063.0
11.44	11.06	7.66	1011.7	1061.9
11.45	11.06	7.65	1012.0	1061.8
11.46	11.06	7.65	1012.0	1062.3
11.47	11.04	7.64	1012.0	1062.5
11.48	11.07	7.65	1012.4	1061.9
11.49	11.06	7.64	1012.5	1062.6
11.5	11.07	7.64	1012.5	1063.1
11.51	11.06	7.64	1012.6	1063.0
11.52	11.07	7.64	1012.8	1062.6
11.53	11.07	7.64	1012.8	1062.8
11.54	11.07	7.63	1012.6	1062.9
11.55	11.06	7.63	1012.8	1063.3
11.56	11.07	7.62	1013.0	1062.7
11.57	11.06	7.62	1012.9	1063.0
11.58	11.05	7.61	1012.9	1064.0
11.59	11.06	7.61	1012.3	1063.8
11.6	11.06	7.61	1012.7	1063.9
11.61	11.07	7.61	1012.6	1063.5
11.62	11.07	7.61	1012.9	1064.1
11.63	11.07	7.61	1012.8	1063.6
11.64	11.05	7.6	1013.1	1063.9
11.65	11.07	7.6	1012.8	1063.6
11.66	11.07	7.6	1013.0	1063.8
11.67	11.06	7.59	1012.8	1064.5
11.68	11.05	7.58	1013.1	1064.4
11.69	11.05	7.58	1013.2	1064.4
11.7	11.04	7.58	1013.2	1064.0
11.71	11.06	7.58	1013.1	1064.4
11.72	11.06	7.58	1013.2	1064.8
11.73	11.06	7.58	1013.1	1064.8
11.74	11.06	7.57	1012.9	1064.5
11.75	11.06	7.57	1013.2	1065.2
11.76	11.06	7.57	1012.9	1065.2
11.77	11.06	7.57	1013.2	1065.1
11.78	11.05	7.56	1013.3	1065.0
11.79	11.05	7.55	1013.2	1065.3
11.8	11.04	7.55	1013.5	1065.8
11.81	11.06	7.55	1013.4	1066.0
11.82	11.06	7.55	1013.6	1066.5
11.83	11.06	7.55	1013.6	1066.1
11.84	11.07	7.55	1013.7	1066.5
11.85	11.07	7.55	1013.8	1066.3
11.86	11.06	7.53	1014.4	1066.5
11.87	11.06	7.54	1013.9	1066.1
11.88	11.05	7.53	1014.3	1066.6
11.89	11.06	7.53	1013.9	1066.4
11.9	11.06	7.53	1014.3	1066.9
11.91	11.06	7.52	1014.1	1066.5
11.92	11.05	7.52	1014.2	1066.8
11.93	11.05	7.51	1014.3	1066.9
11.94	11.06	7.52	1014.5	1067.1
11.95	11.07	7.52	1014.4	1067.1
11.96	11.05	7.51	1014.5	1066.9
11.97	11.06	7.51	1014.6	1067.5
11.98	11.06	7.51	1014.7	1067.5
11.99	11.05	7.5	1014.7	1067.8
12.0	11.07	7.5	1014.8	1066.8
12.01	11.06	7.5	1014.6	1067.4
12.02	11.06	7.5	1015.0	1067.9
12.03	11.06	7.49	1015.1	1067.5
12.04	11.06	7.48	1015.2	1068.1
12.05	11.05	7.48	1014.9	1068.1
12.06	11.06	7.48	1015.2	1068.9
12.07	11.05	7.48	1014.9	1068.6
12.08	11.06	7.48	1015.0	1069.2
12.09	11.05	7.47	1014.9	1068.2
12.1	11.07	7.48	1015.2	1069.2
12.11	11.06	7.47	1014.9	1068.8
12.12	11.05	7.46	1015.1	1069.6
12.13	11.05	7.47	1014.9	1068.6
12.14	11.06	7.46	1015.2	1069.3
12.15	11.06	7.46	1014.8	1069.3
12.16	11.06	7.46	1015.3	1069.9
12.17	11.06	7.46	1015.4	1069.6
12.18	11.06	7.45	1014.9	1069.8
12.19	11.06	7.45	1015.0	1069.8
12.2	11.07	7.45	1015.0	1069.7
12.21	11.06	7.45	1015.2	1069.7
12.22	11.06	7.44	1015.2	1069.4
12.23	11.07	7.45	1015.1	1070.3
12.24	11.07	7.44	1015.2	1070.5
12.25	11.05	7.43	1015.1	1070.7
12.26	11.06	7.43	1015.4	1070.4
12.27	11.06	7.43	1015.4	1071.1
12.28	11.07	7.43	1015.4	1070.9
12.29	11.06	7.42	1015.5	1070.9
12.3	11.06	7.43	1015.7	1070.4
12.31	11.06	7.42	1015.8	1070.3
12.32	11.05	7.41	1016.0	1071.3
12.33	11.07	7.42	1015.7	1070.8
12.34	11.07	7.41	1016.4	1071.6
12.35	11.06	7.41	1016.1	1070.7
12.36	11.06	7.41	1016.1	1072.0
12.37	11.06	7.4	1016.1	1071.7
12.38	11.06	7.4	1016.3	1071.8
12.39	11.07	7.4	1016.1	1071.3
12.4	11.06	7.4	1016.2	1071.9
12.41	11.06	7.4	1015.9	1072.2
12.42	11.06	7.39	1016.2	1072.4
12.43	11.06	7.39	1016.0	1072.3
12.44	11.06	7.39	1016.1	1072.3
12.45	11.05	7.38	1016.2	1072.8
12.46	11.06	7.39	1016.3	1072.8
12.47	11.07	7.38	1016.5	1073.1
12.48	11.06	7.38	1016.6	1072.4
12.49	11.07	7.38	1016.5	1072.5
12.5	11.05	7.37	1016.7	1073.4
12.51	11.07	7.37	1016.4	1073.1
12.52	11.06	7.37	1016.8	1073.1
12.53	11.06	7.36	1016.6	1072.8
12.54	11.06	7.36	1016.8	1073.4
12.55	11.06	7.36	1016.6	1073.3
12.56	11.05	7.35	1016.8	1073.4
12.57	11.07	7.36	1016.8	1073.6
12.58	11.06	7.35	1016.9	1073.8
12.59	11.07	7.36	1017.0	1073.5
12.6	11.05	7.35	1017.1	1073.9
12.61	11.07	7.35	1016.9	1073.6
12.62	11.07	7.34	1017.0	1074.4
12.63	11.05	7.34	1016.8	1073.9
12.64	11.06	7.34	1017.2	1074.3
12.65	11.05	7.33	1017.0	1074.3
12.66	11.06	7.33	1017.2	1074.4
12.67	11.06	7.33	1017.0	1074.8
12.68	11.07	7.33	1017.1	1074.8
12.69	11.05	7.32	1017.2	1075.1
12.7	11.06	7.33	1017.2	1074.3
12.71	11.05	7.32	1017.2	1075.1
12.72	11.06	7.32	1017.6	1075.1
12.73	11.05	7.31	1017.6	1075.1
12.74	11.05	7.31	1017.6	1075.0
12.75	11.06	7.32	1017.5	1075.0
12.76	11.06	7.31	1017.7	1075.3
12.77	11.06	7.31	1017.7	1075.3
12.78	11.05	7.3	1017.8	1074.6
12.79	11.06	7.31	1017.8	1075.0
12.8	11.07	7.3	1017.7	1075.5
12.81	11.06	7.3	1017.8	1075.4
12.82	11.06	7.3	1017.8	1075.6
12.83	11.05	7.29	1017.8	1076.1
12.84	11.06	7.29	1017.9	1076.3
12.85	11.05	7.29	1018.1	1076.4
12.86	11.07	7.29	1018.2	1076.6
12.87	11.05	7.28	1018.0	1075.3
12.88	11.07	7.29	1018.1	1076.8
12.89	11.05	7.27	1018.0	1076.9
12.9	11.07	7.28	1018.2	1077.1
12.91	11.05	7.27	1018.0	1077.0
12.92	11.06	7.27	1018.4	1076.6
12.93	11.06	7.27	1018.3	1077.2
12.94	11.06	7.27	1018.1	1077.2
12.95	11.06	7.27	1018.3	1077.7
12.96	11.07	7.27	1018.3	1077.1
12.97	11.06	7.26	1018.3	1077.9
12.98	11.06	7.26	1018.4	1077.6
12.99	11.06	7.26	1018.2	1077.6
13.0	11.05	7.25	1018.5	1077.6
13.01	11.07	7.26	1018.5	1077.6
13.02	11.05	7.24	1018.7	1078.1
13.03	11.07	7.25	1018.4	1077.0
13.04	11.05	7.24	1018.8	1078.1
13.05	11.07	7.25	1018.3	1077.5
13.06	11.06	7.24	1018.4	1078.5
13.07	11.05	7.24	1018.5	1078.2
13.08	11.06	7.24	1018.6	1078.7
13.09	11.08	7.24	1018.7	1078.0
13.1	11.06	7.23	1018.8	1078.6
13.11	11.07	7.23	1018.5	1078.7
13.12	11.06	7.23	1018.8	1078.9
13.13	11.06	7.22	1018.6	1078.8
13.14	11.07	7.23	1018.9	1079.2
13.15	11.06	7.22	1018.9	1079.3
13.16	11.06	7.22	1019.1	1079.3
13.17	11.06	7.22	1018.8	1079.2
13.18	11.05	7.21	1018.8	1079.0
13.19	11.06	7.21	1018.8	1078.9
13.2	11.05	7.21	1019.1	1079.2
13.21	11.06	7.2	1018.8	1079.4
13.22	11.06	7.21	1019.2	1079.3
13.23	11.05	7.2	1019.0	1079.9
13.24	11.06	7.2	1019.1	1080.4
13.25	11.07	7.2	1019.0	1080.0
13.26	11.05	7.19	1019.1	1079.8
13.27	11.06	7.19	1018.9	1080.4
13.28	11.06	7.19	1019.2	1080.5
13.29	11.07	7.19	1019.0	1080.7
13.3	11.06	7.19	1019.2	1080.8
13.31	11.07	7.19	1019.2	1080.4
13.32	11.07	7.19	1019.2	1081.1
13.33	11.06	7.18	1019.2	1080.8
13.34	11.06	7.18	1019.2	1080.8
13.35	11.06	7.18	1018.8	1080.6
13.36	11.05	7.17	1019.6	1081.3
13.37	11.07	7.18	1019.2	1081.3
13.38	11.06	7.17	1019.3	1081.6
13.39	11.07	7.17	1019.3	1080.8
13.4	11.06	7.16	1019.5	1081.0
13.41	11.05	7.16	1019.4	1081.6
13.42	11.06	7.16	1019.5	1081.2
13.43	11.06	7.16	1019.5	1081.0
13.44	11.06	7.15	1019.5	1081.6
13.45	11.06	7.16	1019.4	1081.9
13.46	11.07	7.16	1019.6	1082.0
13.47	11.06	7.15	1019.5	1081.7
13.48	11.06	7.15	1019.5	1081.3
13.49	11.06	7.14	1019.6	1082.6
13.5	11.07	7.15	1019.5	1082.4
13.51	11.05	7.14	1019.6	1082.6
13.52	11.06	7.14	1019.6	1082.2
13.53	11.07	7.15	1019.6	1082.2
13.54	11.05	7.13	1019.9	1082.9
13.55	11.06	7.14	1020.0	1082.8
13.56	11.05	7.12	1019.7	1083.2
13.57	11.06	7.13	1019.9	1082.9
13.58	11.07	7.13	1020.0	1083.2
13.59	11.05	7.12	1019.9	1083.3
13.6	11.07	7.13	1020.1	1083.0
13.61	11.05	7.12	1020.0	1082.7
13.62	11.06	7.12	1020.0	1083.2
13.63	11.07	7.13	1019.8	1083.2
13.64	11.06	7.12	1020.2	1083.2
13.65	11.06	7.12	1020.2	1083.3
13.66	11.08	7.12	1020.2	1083.2
13.67	11.06	7.11	1019.8	1084.0
13.68	11.06	7.11	1020.2	1084.0
13.69	11.07	7.11	1020.1	1083.8
13.7	11.06	7.1	1020.0	1083.6
13.71	11.07	7.11	1020.2	1084.2
13.72	11.06	7.1	1020.2	1084.4
13.73	11.06	7.1	1020.3	1083.9
13.74	11.07	7.1	1020.5	1084.0
13.75	11.06	7.09	1020.6	1084.4
13.76	11.05	7.09	1020.3	1085.0
13.77	11.06	7.09	1020.5	1084.5
13.78	11.07	7.09	1020.4	1084.6
13.79	11.06	7.08	1020.3	1084.2
13.8	11.06	7.08	1020.3	1084.9
13.81	11.08	7.09	1020.4	1085.0
13.82	11.06	7.08	1020.5	1085.0
13.83	11.05	7.08	1020.6	1084.9
13.84	11.07	7.08	1020.7	1085.7
13.85	11.06	7.07	1020.8	1085.4
13.86	11.05	7.07	1020.6	1085.6
13.87	11.07	7.07	1020.6	1085.2
13.88	11.06	7.07	1020.8	1085.8
13.89	11.06	7.06	1020.7	1085.4
13.9	11.05	7.06	1021.0	1085.8
13.91	11.06	7.06	1020.8	1085.7
13.92	11.05	7.06	1021.2	1085.6
13.93	11.06	7.05	1021.1	1086.1
13.94	11.06	7.06	1021.0	1085.4
13.95	11.05	7.05	1020.8	1086.4
13.96	11.06	7.05	1020.6	1085.9
13.97	11.07	7.06	1020.7	1086.3
13.98	11.05	7.05	1020.7	1086.0
13.99	11.06	7.05	1020.7	1085.9
14.0	11.06	7.05	1020.7	1086.2
14.01	11.07	7.04	1020.8	1086.3
14.02	11.05	7.04	1020.6	1086.2
14.03	11.06	7.04	1020.7	1087.2
14.04	11.07	7.04	1020.8	1086.7
14.05	11.07	7.03	1020.8	1086.8
14.06	11.06	7.03	1020.9	1087.5
14.07	11.06	7.03	1021.1	1087.2
14.08	11.06	7.03	1021.2	1086.7
14.09	11.06	7.03	1021.0	1087.4
14.1	11.06	7.03	1021.0	1087.7
14.11	11.06	7.02	1020.9	1087.2
14.12	11.07	7.02	1020.8	1087.6
14.13	11.05	7.02	1020.9	1087.3
14.14	11.06	7.01	1020.8	1088.5
14.15	11.05	7.01	1020.6	1088.0
14.16	11.06	7.01	1020.7	1088.0
14.17	11.06	7.01	1020.8	1087.6
14.18	11.06	7.0	1020.8	1088.2
14.19	11.05	7.0	1020.6	1088.0
14.2	11.06	7.0	1020.9	1088.5
14.21	11.05	7.0	1020.6	1088.7
14.22	11.07	7.0	1021.0	1088.4
14.23	11.06	7.0	1020.8	1088.5
14.24	11.05	6.99	1020.9	1088.5
14.25	11.05	7.0	1021.2	1088.8
14.26	11.07	7.0	1021.2	1088.4
14.27	11.06	7.0	1021.1	1089.1
14.28	11.05	6.99	1021.3	1089.4
14.29	11.04	6.98	1021.2	1088.8
14.3	11.06	6.99	1021.2	1089.2
14.31	11.06	6.99	1021.1	1089.2
14.32	11.08	6.99	1020.8	1089.3
14.33	11.07	6.99	1021.3	1089.0
14.34	11.06	6.98	1021.2	1089.4
14.35	11.05	6.97	1021.3	1089.6
14.36	11.05	6.97	1021.4	1089.5
14.37	11.05	6.97	1021.6	1089.9
14.38	11.07	6.98	1021.7	1090.3
14.39	11.07	6.98	1021.6	1089.6
14.4	11.06	6.97	1021.6	1090.5
14.41	11.06	6.96	1021.4	1090.0
14.42	11.05	6.96	1021.7	1090.4
14.43	11.06	6.97	1021.7	1090.1
14.44	11.07	6.96	1021.5	1090.4
14.45	11.07	6.97	1021.8	1091.0
14.46	11.07	6.96	1021.7	1090.9
14.47	11.05	6.95	1022.0	1090.8
14.48	11.04	6.95	1021.6	1090.8
14.49	11.05	6.95	1021.5	1090.8
14.5	11.06	6.95	1021.6	1090.6
14.51	11.07	6.96	1021.6	1091.1
14.52	11.06	6.95	1021.7	1090.4
14.53	11.06	6.94	1021.7	1091.1
14.54	11.05	6.93	1022.0	1091.4
14.55	11.06	6.94	1021.9	1091.4
14.56	11.06	6.94	1021.9	1091.0
14.57	11.07	6.94	1022.0	1091.8
14.58	11.07	6.94	1021.8	1091.6
14.59	11.07	6.94	1021.8	1091.2
14.6	11.06	6.93	1022.0	1091.5
14.61	11.05	6.93	1021.8	1091.6
14.62	11.04	6.92	1021.7	1092.2
14.63	11.06	6.93	1022.0	1092.1
14.64	11.07	6.93	1022.1	1092.2
14.65	11.06	6.92	1022.1	1091.6
14.66	11.05	6.92	1022.2	1092.0
14.67	11.06	6.92	1022.1	1092.3
14.68	11.06	6.92	1022.3	1092.3
14.69	11.07	6.92	1022.3	1092.3
14.7	11.05	6.91	1022.5	1092.6
14.71	11.05	6.91	1022.4	1092.8
14.72	11.05	6.91	1022.4	1092.5
14.73	11.04	6.9	1022.5	1093.1
14.74	11.06	6.91	1022.5	1092.5
14.75	11.06	6.91	1022.3	1093.0
14.76	11.06	6.91	1022.4	1093.0
14.77	11.06	6.91	1022.5	1093.3
14.78	11.05	6.9	1022.4	1092.6
14.79	11.05	6.89	1022.6	1093.1
14.8	11.06	6.89	1022.4	1093.3
14.81	11.04	6.88	1022.4	1093.5
14.82	11.05	6.89	1022.6	1093.5
14.83	11.05	6.89	1022.4	1093.6
14.84	11.06	6.89	1022.6	1093.6
14.85	11.06	6.89	1022.7	1093.9
14.86	11.07	6.89	1022.4	1093.7
14.87	11.07	6.89	1022.5	1093.6
14.88	11.07	6.89	1022.6	1093.7
14.89	11.07	6.88	1022.7	1093.9
14.9	11.08	6.89	1022.8	1094.6
14.91	11.06	6.88	1022.9	1093.6
14.92	11.07	6.88	1022.6	1094.2
14.93	11.06	6.87	1022.8	1094.6
14.94	11.07	6.87	1022.7	1093.8
14.95	11.07	6.87	1022.7	1093.6
14.96	11.05	6.87	1022.8	1094.0
14.97	11.06	6.87	1022.8	1094.7
14.98	11.07	6.87	1022.8	1094.8
14.99	11.06	6.87	1022.8	1094.1
15.0	11.07	6.86	1022.6	1094.7
15.01	11.07	6.87	1022.9	1095.3
15.02	11.07	6.86	1023.0	1095.3
15.03	11.07	6.87	1022.5	1095.1
15.04	11.07	6.86	1022.7	1095.1
15.05	11.07	6.86	1022.9	1095.5
15.06	11.07	6.85	1022.8	1095.6
15.07	11.06	6.86	1022.7	1096.0
15.08	11.07	6.85	1023.1	1095.5
15.09	11.07	6.85	1022.6	1095.7
15.1	11.06	6.84	1023.0	1095.9
15.11	11.06	6.85	1023.0	1096.2
15.12	11.06	6.84	1023.1	1096.5
15.13	11.06	6.84	1022.9	1095.9
15.14	11.06	6.84	1023.0	1096.6
15.15	11.06	6.83	1023.0	1096.0
15.16	11.06	6.83	1023.3	1096.8
15.17	11.06	6.83	1023.0	1096.0
15.18	11.06	6.83	1023.2	1097.3
15.19	11.06	6.83	1022.8	1096.6
15.2	11.06	6.83	1023.3	1096.5
15.21	11.07	6.83	1022.9	1096.2
15.22	11.06	6.82	1022.9	1096.7
15.23	11.07	6.83	1023.1	1097.4
15.24	11.06	6.82	1023.4	1097.3
15.25	11.06	6.82	1023.2	1097.0
15.26	11.06	6.82	1023.4	1096.8
15.27	11.06	6.82	1023.7	1097.7
15.28	11.05	6.82	1023.5	1097.4
15.29	11.07	6.82	1023.5	1098.0
15.3	11.07	6.82	1023.6	1097.2
15.31	11.08	6.82	1023.2	1097.9
15.32	11.07	6.81	1023.1	1098.3
15.33	11.07	6.81	1023.1	1097.9
15.34	11.07	6.81	1023.2	1098.1
15.35	11.08	6.81	1022.9	1097.5
15.36	11.06	6.81	1023.0	1098.5
15.37	11.07	6.8	1023.4	1098.4
15.38	11.06	6.8	1023.2	1098.5
15.39	11.08	6.8	1023.1	1097.9
15.4	11.06	6.79	1023.2	1098.3
15.41	11.05	6.79	1023.2	1098.7
15.42	11.05	6.79	1023.4	1098.3
15.43	11.06	6.79	1023.6	1098.3
15.44	11.06	6.79	1023.3	1098.5
15.45	11.04	6.78	1023.4	1099.1
15.46	11.05	6.78	1023.4	1098.6
15.47	11.05	6.78	1023.3	1098.8
15.48	11.04	6.77	1023.3	1098.9
15.49	11.05	6.78	1023.5	1099.1
15.5	11.06	6.78	1023.5	1099.3
15.51	11.06	6.78	1023.7	1099.4
15.52	11.06	6.78	1023.5	1099.0
15.53	11.07	6.78	1023.6	1099.4
15.54	11.07	6.78	1023.6	1099.9
15.55	11.06	6.77	1023.5	1099.5
15.56	11.06	6.77	1023.6	1099.4
15.57	11.05	6.76	1023.5	1099.4
15.58	11.05	6.76	1024.0	1099.9
15.59	11.05	6.76	1023.6	1099.4
15.6	11.05	6.76	1023.7	1099.6
15.61	11.05	6.75	1023.6	1099.4
15.62	11.05	6.76	1023.8	1099.9
15.63	11.05	6.75	1023.9	1099.5
15.64	11.06	6.75	1023.7	1098.9
15.65	11.06	6.75	1023.9	1098.7
15.66	11.06	6.75	1023.9	1099.3
15.67	11.06	6.75	1023.8	1099.5
15.68	11.06	6.75	1023.8	1099.6
15.69	11.06	6.75	1024.0	1099.4
15.7	11.07	6.75	1023.7	1100.1
15.71	11.07	6.75	1023.9	1100.1
15.72	11.08	6.75	1024.0	1100.0
15.73	11.08	6.75	1023.8	1099.7
15.74	11.07	6.75	1023.6	1100.0
15.75	11.07	6.75	1023.9	1100.4
15.76	11.08	6.75	1023.8	1100.8
15.77	11.08	6.75	1023.8	1100.8
15.78	11.08	6.74	1023.9	1100.8
15.79	11.06	6.73	1023.7	1101.2
15.8	11.06	6.73	1023.8	1101.2
15.81	11.06	6.73	1024.0	1101.4
15.82	11.06	6.73	1024.0	1101.2
15.83	11.06	6.73	1023.9	1101.8
15.84	11.06	6.73	1024.0	1101.6
15.85	11.07	6.73	1023.9	1101.3
15.86	11.06	6.73	1024.1	1101.2
15.87	11.06	6.72	1024.0	1101.7
15.88	11.08	6.73	1024.0	1101.8
15.89	11.07	6.72	1024.0	1102.1
15.9	11.05	6.72	1023.9	1101.7
15.91	11.06	6.71	1023.8	1101.5
15.92	11.06	6.71	1024.0	1102.4
15.93	11.05	6.7	1024.1	1102.2
15.94	11.06	6.71	1024.1	1102.1
15.95	11.04	6.7	1024.1	1101.9
15.96	11.06	6.71	1023.9	1101.9
15.97	11.05	6.7	1024.1	1102.1
15.98	11.04	6.7	1023.9	1102.1
15.99	11.05	6.7	1024.1	1102.1
16.0	11.05	6.69	1024.1	1102.3
16.01	11.05	6.7	1023.9	1102.5
16.02	11.05	6.69	1024.2	1102.3
16.03	11.06	6.69	1024.0	1102.3
16.04	11.05	6.69	1024.1	1102.0
16.05	11.04	6.69	1023.9	1102.6
16.06	11.05	6.69	1023.7	1102.5
16.07	11.07	6.69	1023.8	1102.3
16.08	11.06	6.69	1023.9	1102.2
16.09	11.08	6.7	1023.9	1102.4
16.1	11.07	6.69	1024.0	1102.9
16.11	11.08	6.7	1023.9	1102.6
16.12	11.07	6.69	1023.8	1102.1
16.13	11.07	6.69	1024.0	1102.9
16.14	11.07	6.69	1024.0	1103.3
16.15	11.07	6.69	1024.0	1102.9
16.16	11.07	6.68	1024.0	1102.8
16.17	11.07	6.68	1024.2	1103.0
16.18	11.07	6.68	1024.0	1103.7
16.19	11.07	6.68	1024.3	1103.2
16.2	11.07	6.68	1023.8	1103.6
16.21	11.04	6.67	1023.8	1103.4
16.22	11.07	6.67	1024.0	1104.0
16.23	11.05	6.67	1024.2	1103.7
16.24	11.05	6.66	1024.2	1104.2
16.25	11.05	6.66	1024.1	1103.3
16.26	11.05	6.66	1024.0	1104.0
16.27	11.05	6.66	1024.1	1104.0
16.28	11.05	6.66	1024.2	1104.5
16.29	11.04	6.65	1024.2	1104.2
16.3	11.06	6.66	1024.3	1104.5
16.31	11.04	6.65	1024.2	1104.3
16.32	11.06	6.65	1024.1	1104.7
16.33	11.05	6.65	1024.0	1104.4
16.34	11.06	6.65	1024.2	1104.5
16.35	11.07	6.66	1024.1	1105.3
16.36	11.05	6.64	1024.1	1105.3
16.37	11.05	6.64	1024.3	1105.0
16.38	11.06	6.64	1024.3	1104.9
16.39	11.05	6.64	1024.1	1105.2
16.4	11.06	6.65	1024.1	1105.0
16.41	11.06	6.64	1023.9	1104.9
16.42	11.05	6.64	1024.3	1105.0
16.43	11.05	6.64	1024.4	1104.9
16.44	11.05	6.63	1024.1	1106.0
16.45	11.05	6.63	1024.1	1105.5
16.46	11.06	6.63	1024.5	1105.9
16.47	11.05	6.63	1024.3	1105.1
16.48	11.08	6.64	1024.5	1105.9
16.49	11.06	6.63	1024.0	1105.4
16.5	11.08	6.64	1024.2	1105.8
16.51	11.06	6.63	1024.5	1105.6
16.52	11.06	6.63	1024.3	1106.0
16.53	11.05	6.62	1024.4	1106.0
16.54	11.04	6.61	1024.4	1105.8
16.55	11.06	6.62	1024.6	1105.0
16.56	11.07	6.63	1024.5	1105.7
16.57	11.05	6.62	1024.4	1105.7
16.58	11.06	6.62	1024.7	1106.5
16.59	11.05	6.61	1024.6	1106.6
16.6	11.05	6.61	1024.6	1105.9
16.61	11.06	6.61	1024.4	1106.6
16.62	11.06	6.61	1024.4	1107.3
16.63	11.07	6.62	1024.5	1106.9
16.64	11.07	6.61	1024.5	1106.5
16.65	11.06	6.61	1024.4	1106.3
16.66	11.06	6.61	1024.4	1107.0
16.67	11.05	6.6	1024.5	1107.0
16.68	11.06	6.6	1024.6	1107.4
16.69	11.05	6.6	1024.6	1106.6
16.7	11.06	6.6	1024.4	1107.6
16.71	11.07	6.61	1024.5	1107.6
16.72	11.06	6.6	1024.5	1107.9
16.73	11.08	6.6	1024.4	1106.9
16.74	11.07	6.6	1024.5	1107.7
16.75	11.07	6.6	1024.5	1107.9
16.76	11.06	6.6	1024.4	1107.2
16.77	11.05	6.59	1024.5	1107.4
16.78	11.05	6.59	1024.6	1107.8
16.79	11.06	6.59	1024.7	1108.1
16.8	11.06	6.59	1024.4	1108.0
16.81	11.07	6.59	1024.3	1107.7
16.82	11.07	6.59	1024.6	1107.6
16.83	11.06	6.59	1024.7	1108.1
16.84	11.07	6.59	1024.6	1108.6
16.85	11.06	6.58	1024.6	1108.6
16.86	11.07	6.59	1024.6	1108.3
16.87	11.08	6.58	1024.6	1108.8
16.88	11.07	6.58	1024.7	1109.1
16.89	11.06	6.57	1024.8	1109.2
16.9	11.06	6.57	1024.6	1109.0
16.91	11.05	6.57	1024.6	1109.0
16.92	11.06	6.57	1024.6	1109.6
16.93	11.05	6.57	1024.7	1109.5
16.94	11.05	6.56	1024.8	1108.9
16.95	11.05	6.56	1024.7	1109.1
16.96	11.06	6.56	1024.8	1109.4
16.97	11.06	6.57	1024.8	1109.6
16.98	11.06	6.57	1024.8	1109.4
16.99	11.07	6.57	1024.8	1109.0
17.0	11.06	6.56	1025.0	1109.4
17.01	11.05	6.55	1025.0	1108.9
17.02	11.06	6.55	1024.9	1109.6
17.03	11.05	6.55	1025.2	1109.3
17.04	11.05	6.55	1025.3	1110.0
17.05	11.05	6.55	1025.1	1109.9
17.06	11.05	6.55	1025.0	1109.6
17.07	11.06	6.55	1025.2	1109.9
17.08	11.06	6.55	1025.4	1109.6
17.09	11.06	6.55	1025.3	1110.0
17.1	11.07	6.56	1025.3	1109.9
17.11	11.06	6.55	1025.3	1109.8
17.12	11.08	6.55	1025.2	1109.4
17.13	11.06	6.55	1025.3	1110.5
17.14	11.07	6.54	1025.3	1110.3
17.15	11.05	6.54	1025.3	1110.7
17.16	11.06	6.54	1025.4	1110.4
17.17	11.04	6.53	1025.2	1110.0
17.18	11.06	6.54	1025.4	1110.8
17.19	11.05	6.54	1025.2	1110.9
17.2	11.06	6.54	1025.2	1110.7
17.21	11.06	6.54	1025.4	1110.6
17.22	11.07	6.54	1025.4	1111.0
17.23	11.07	6.54	1025.2	1110.5
17.24	11.06	6.53	1025.3	1110.7
17.25	11.04	6.52	1025.3	1110.8
17.26	11.05	6.52	1025.2	1111.3
17.27	11.04	6.52	1025.4	1111.7
17.28	11.06	6.53	1025.4	1111.3
17.29	11.06	6.52	1025.3	1111.7
17.3	11.07	6.53	1025.4	1111.2
17.31	11.07	6.53	1025.5	1111.8
17.32	11.06	6.52	1025.4	1111.5
17.33	11.06	6.52	1025.5	1111.4
17.34	11.06	6.52	1025.3	1111.7
17.35	11.07	6.52	1025.3	1111.8
17.36	11.05	6.51	1025.2	1112.1
17.37	11.05	6.51	1025.6	1111.9
17.38	11.05	6.5	1025.4	1112.1
17.39	11.05	6.51	1025.3	1111.7
17.4	11.05	6.5	1025.4	1112.5
17.41	11.06	6.51	1025.3	1112.2
17.42	11.06	6.51	1025.4	1112.3
17.43	11.08	6.51	1025.3	1111.9
17.44	11.06	6.51	1025.4	1112.6
17.45	11.05	6.5	1025.3	1112.0
17.46	11.05	6.5	1025.2	1112.2
17.47	11.07	6.5	1025.4	1112.0
17.48	11.06	6.5	1025.3	1112.6
17.49	11.06	6.5	1025.3	1112.8
17.5	11.06	6.5	1025.2	1112.5
17.51	11.06	6.49	1025.3	1112.8
17.52	11.06	6.49	1025.0	1112.5
17.53	11.06	6.49	1025.6	1113.6
17.54	11.08	6.5	1025.4	1113.6
17.55	11.06	6.49	1025.5	1113.2
17.56	11.04	6.48	1025.4	1112.8
17.57	11.06	6.49	1025.5	1113.7
17.58	11.06	6.49	1025.2	1114.0
17.59	11.07	6.49	1025.3	1113.5
17.6	11.07	6.49	1025.1	1112.7
17.61	11.06	6.48	1025.3	1113.5
17.62	11.06	6.48	1025.4	1114.0
17.63	11.06	6.48	1025.1	1113.8
17.64	11.06	6.48	1025.2	1113.9
17.65	11.05	6.48	1025.1	1113.6
17.66	11.05	6.47	1025.4	1113.9
17.67	11.05	6.48	1025.1	1114.0
17.68	11.07	6.48	1025.6	1114.2
17.69	11.06	6.48	1025.5	1113.9
17.7	11.05	6.47	1025.2	1114.6
17.71	11.04	6.46	1025.2	1114.5
17.72	11.08	6.48	1025.2	1114.2
17.73	11.05	6.47	1025.4	1113.7
17.74	11.05	6.46	1025.5	1113.8
17.75	11.05	6.46	1025.5	1114.7
17.76	11.06	6.47	1025.6	1114.8
17.77	11.07	6.47	1025.3	1114.2
17.78	11.05	6.46	1025.4	1114.0
17.79	11.04	6.46	1025.7	1114.5
17.8	11.07	6.47	1025.6	1114.4
17.81	11.06	6.46	1025.7	1114.8
17.82	11.05	6.45	1025.3	1114.3
17.83	11.05	6.45	1025.4	1114.8
17.84	11.07	6.46	1025.6	1114.8
17.85	11.07	6.46	1025.5	1114.8
17.86	11.06	6.45	1025.4	1115.2
17.87	11.05	6.45	1025.6	1115.2
17.88	11.06	6.45	1025.5	1114.9
17.89	11.04	6.44	1025.6	1114.3
17.9	11.07	6.45	1025.3	1114.9
17.91	11.07	6.45	1025.5	1114.8
17.92	11.06	6.44	1025.6	1115.7
17.93	11.05	6.44	1025.6	1115.7
17.94	11.05	6.43	1025.4	1115.8
17.95	11.05	6.44	1025.6	1115.6
17.96	11.06	6.44	1025.5	1115.8
17.97	11.06	6.44	1025.3	1116.0
17.98	11.05	6.44	1025.4	1116.0
17.99	11.05	6.43	1025.7	1116.1
18.0	11.06	6.44	1025.7	1115.4
18.01	11.06	6.44	1025.6	1116.3
18.02	11.05	6.43	1025.7	1116.2
18.03	11.06	6.43	1025.8	1116.1
18.04	11.05	6.43	1025.9	1116.0
18.05	11.06	6.43	1025.5	1115.9
18.06	11.07	6.44	1025.5	1116.1
18.07	11.07	6.43	1025.4	1116.3
18.08	11.05	6.43	1025.5	1116.2
18.09	11.06	6.43	1025.7	1115.2
18.1	11.05	6.42	1025.6	1116.3
18.11	11.05	6.42	1025.8	1116.1
18.12	11.04	6.41	1025.6	1117.2
18.13	11.05	6.42	1025.5	1116.3
18.14	11.06	6.42	1025.8	1117.2
18.15	11.07	6.43	1025.9	1116.6
18.16	11.06	6.42	1025.7	1116.7
18.17	11.07	6.42	1025.6	1116.5
18.18	11.05	6.41	1025.7	1116.9
18.19	11.06	6.41	1025.6	1116.8
18.2	11.07	6.42	1025.7	1116.6
18.21	11.07	6.42	1025.6	1116.4
18.22	11.06	6.41	1025.8	1116.9
18.23	11.07	6.41	1025.8	1117.6
18.24	11.05	6.41	1026.1	1117.1
18.25	11.05	6.4	1026.2	1117.0
18.26	11.06	6.41	1026.0	1117.0
18.27	11.08	6.42	1026.0	1117.1
18.28	11.06	6.4	1025.8	1117.0
18.29	11.05	6.4	1025.6	1117.1
18.3	11.06	6.4	1026.1	1117.2
18.31	11.07	6.41	1025.8	1117.4
18.32	11.06	6.41	1025.8	1118.0
18.33	11.05	6.4	1025.7	1117.8
18.34	11.06	6.4	1025.5	1117.9
18.35	11.06	6.4	1025.7	1117.8
18.36	11.06	6.4	1025.6	1118.7
18.37	11.07	6.4	1025.9	1118.0
18.38	11.06	6.39	1025.9	1117.9
18.39	11.05	6.39	1025.6	1118.5
18.4	11.05	6.39	1025.7	1119.0
18.41	11.06	6.39	1025.6	1118.5
18.42	11.07	6.4	1025.5	1118.6
18.43	11.04	6.38	1025.6	1118.6
18.44	11.05	6.38	1025.8	1119.0
18.45	11.06	6.39	1025.6	1119.1
18.46	11.07	6.39	1025.5	1119.2
18.47	11.06	6.38	1025.7	1118.9
18.48	11.05	6.38	1025.8	1118.2
18.49	11.05	6.38	1025.7	1119.1
18.5	11.05	6.38	1025.7	1119.3
18.51	11.05	6.37	1025.6	1118.6
18.52	11.07	6.38	1025.8	1119.4
18.53	11.06	6.38	1025.7	1119.0
18.54	11.04	6.37	1025.8	1119.0
18.55	11.05	6.37	1025.9	1119.8
18.56	11.05	6.37	1025.8	1119.1
18.57	11.04	6.37	1026.0	1119.2
18.58	11.06	6.37	1026.0	1119.3
18.59	11.06	6.37	1025.7	1118.9
18.6	11.07	6.37	1025.8	1118.9
18.61	11.06	6.37	1025.8	1119.0
18.62	11.07	6.37	1025.8	1119.6
18.63	11.05	6.36	1025.8	1119.4
18.64	11.07	6.36	1025.6	1119.4
18.65	11.05	6.36	1025.9	1119.0
18.66	11.05	6.36	1025.9	1119.9
18.67	11.07	6.36	1025.9	1119.7
18.68	11.07	6.37	1025.8	1120.0
18.69	11.06	6.36	1026.0	1119.7
18.7	11.05	6.35	1025.7	1120.0
18.71	11.06	6.36	1025.8	1120.0
18.72	11.06	6.36	1026.0	1120.3
18.73	11.06	6.35	1025.9	1119.8
18.74	11.04	6.35	1025.8	1119.9
18.75	11.05	6.35	1025.8	1120.2
18.76	11.04	6.35	1025.7	1120.5
18.77	11.04	6.34	1025.7	1120.9
18.78	11.06	6.35	1025.9	1120.4
18.79	11.07	6.35	1026.0	1120.4
18.8	11.06	6.35	1025.9	1120.9
18.81	11.05	6.34	1026.1	1120.5
18.82	11.05	6.34	1026.0	1120.3
18.83	11.06	6.35	1026.0	1121.0
18.84	11.05	6.34	1025.7	1121.0
18.85	11.05	6.34	1026.0	1120.9
18.86	11.06	6.34	1026.0	1120.9
18.87	11.05	6.33	1026.0	1120.6
18.88	11.05	6.34	1026.0	1121.7
18.89	11.07	6.34	1026.0	1121.2
18.9	11.06	6.34	1025.9	1121.4
18.91	11.05	6.33	1025.6	1120.7
18.92	11.05	6.33	1025.6	1121.7
18.93	11.06	6.34	1025.9	1121.3
18.94	11.06	6.33	1025.8	1121.2
18.95	11.06	6.33	1026.0	1121.0
18.96	11.06	6.33	1025.7	1121.6
18.97	11.06	6.33	1026.0	1121.3
18.98	11.04	6.32	1025.9	1121.3
18.99	11.05	6.33	1025.8	1121.9
19.0	11.07	6.33	1025.7	1121.8
19.01	11.06	6.33	1025.7	1121.7
19.02	11.06	6.33	1026.0	1121.8
19.03	11.05	6.32	1025.7	1121.5
19.04	11.05	6.32	1026.0	1121.2
19.05	11.04	6.32	1025.8	1121.7
19.06	11.05	6.32	1025.8	1121.8
19.07	11.05	6.31	1026.0	1122.6
19.08	11.05	6.32	1025.8	1121.7
19.09	11.06	6.31	1025.9	1122.0
19.1	11.05	6.31	1025.9	1121.7
19.11	11.06	6.32	1025.9	1121.3
19.12	11.07	6.32	1026.1	1121.5
19.13	11.05	6.31	1025.9	1121.6
19.14	11.07	6.32	1025.7	1122.1
19.15	11.05	6.31	1026.0	1122.0
19.16	11.05	6.31	1025.8	1122.6
19.17	11.04	6.31	1026.0	1121.5
19.18	11.05	6.3	1025.9	1122.8
19.19	11.05	6.3	1025.9	1122.3
19.2	11.07	6.31	1025.7	1122.8
19.21	11.05	6.3	1025.9	1122.2
19.22	11.06	6.31	1026.0	1122.7
19.23	11.06	6.31	1025.9	1122.4
19.24	11.06	6.31	1026.0	1122.1
19.25	11.06	6.31	1025.8	1122.1
19.26	11.05	6.3	1025.6	1122.8
19.27	11.04	6.29	1025.9	1123.3
19.28	11.05	6.29	1025.8	1123.0
19.29	11.04	6.29	1025.7	1122.5
19.3	11.05	6.29	1025.7	1122.6
19.31	11.06	6.3	1025.9	1123.7
19.32	11.06	6.29	1025.8	1123.2
19.33	11.06	6.29	1025.8	1123.2
19.34	11.06	6.29	1026.1	1122.5
19.35	11.05	6.29	1025.8	1123.4
19.36	11.06	6.29	1025.8	1123.5
19.37	11.06	6.29	1025.5	1122.8
19.38	11.07	6.29	1025.8	1123.0
19.39	11.07	6.29	1025.8	1123.2
19.4	11.06	6.29	1025.8	1123.4
19.41	11.07	6.29	1026.0	1123.6
19.42	11.07	6.29	1026.0	1123.5
19.43	11.05	6.28	1025.7	1123.2
19.44	11.04	6.28	1025.8	1123.9
19.45	11.06	6.28	1025.8	1123.6
19.46	11.05	6.28	1025.9	1123.9
19.47	11.06	6.28	1025.7	1123.3
19.48	11.06	6.28	1025.9	1124.5
19.49	11.06	6.28	1025.5	1123.6
19.5	11.06	6.28	1026.1	1124.4
19.51	11.07	6.28	1025.8	1124.3
19.52	11.05	6.28	1025.8	1124.0
19.53	11.07	6.28	1025.7	1124.6
19.54	11.04	6.27	1025.9	1125.0
19.55	11.05	6.27	1026.1	1124.8
19.56	11.06	6.27	1025.9	1123.9
19.57	11.04	6.26	1026.0	1125.0
19.58	11.05	6.27	1025.6	1125.2
19.59	11.06	6.27	1026.0	1124.6
19.6	11.05	6.27	1026.0	1124.0
19.61	11.07	6.27	1026.0	1124.3
19.62	11.06	6.27	1025.9	1124.7
19.63	11.06	6.26	1025.7	1124.2
19.64	11.05	6.26	1025.7	1124.5
19.65	11.06	6.26	1026.0	1124.8
19.66	11.04	6.25	1026.0	1124.9
19.67	11.06	6.25	1026.0	1124.7
19.68	11.04	6.25	1025.6	1124.4
19.69	11.04	6.25	1025.8	1124.4
19.7	11.04	6.25	1025.6	1125.0
19.71	11.04	6.25	1025.8	1124.9
19.72	11.06	6.25	1025.6	1124.8
19.73	11.04	6.25	1025.7	1124.4
19.74	11.05	6.25	1025.8	1125.6
19.75	11.07	6.26	1025.8	1125.0
19.76	11.08	6.26	1025.9	1125.0
19.77	11.06	6.25	1025.8	1124.8
19.78	11.06	6.26	1025.6	1124.6
19.79	11.06	6.25	1025.9	1124.9
19.8	11.06	6.25	1025.7	1125.2
19.81	11.06	6.25	1025.6	1124.7
19.82	11.06	6.25	1025.6	1125.0
19.83	11.07	6.25	1025.7	1125.3
19.84	11.07	6.25	1025.8	1125.6
19.85	11.06	6.24	1025.5	1125.5
19.86	11.06	6.24	1025.9	1125.3
19.87	11.05	6.24	1025.8	1125.5
19.88	11.06	6.24	1025.8	1125.5
19.89	11.04	6.24	1025.7	1125.9
19.9	11.06	6.24	1025.6	1125.2
19.91	11.05	6.24	1025.5	1125.8
19.92	11.05	6.23	1025.7	1125.8
19.93	11.05	6.24	1025.8	1125.5
19.94	11.05	6.23	1025.4	1125.6
19.95	11.05	6.23	1025.6	1126.2
19.96	11.05	6.23	1025.6	1125.2
19.97	11.05	6.23	1025.5	1125.8
19.98	11.06	6.23	1025.7	1126.4
19.99	11.04	6.22	1025.5	1125.7
20.0	11.05	6.23	1025.7	1126.5
20.01	11.03	6.22	1025.2	1126.2
20.02	11.05	6.22	1025.8	1126.2
20.03	11.05	6.23	1025.6	1125.9
20.04	11.04	6.21	1025.5	1126.7
20.05	11.05	6.22	1025.5	1126.4
20.06	11.06	6.22	1025.5	1125.7
20.07	11.05	6.22	1025.4	1125.9
20.08	11.07	6.22	1025.4	1125.8
20.09	11.05	6.22	1025.9	1126.7
20.1	11.07	6.23	1025.6	1126.4
20.11	11.06	6.22	1025.7	1126.4
20.12	11.07	6.22	1025.5	1125.8
20.13	11.06	6.22	1025.5	1125.8
20.14	11.05	6.21	1025.4	1126.4
20.15	11.06	6.22	1025.7	1126.8
20.16	11.07	6.22	1025.8	1125.9
20.17	11.06	6.22	1025.6	1126.7
20.18	11.08	6.22	1025.5	1126.7
20.19	11.05	6.21	1025.7	1126.1
20.2	11.05	6.22	1025.6	1126.2
20.21	11.06	6.21	1025.4	1127.1
20.22	11.07	6.21	1025.2	1127.0
20.23	11.06	6.21	1025.4	1126.8
20.24	11.06	6.21	1025.4	1126.3
20.25	11.07	6.21	1025.6	1127.3
20.26	11.04	6.2	1025.5	1127.7
20.27	11.05	6.2	1025.3	1127.2
20.28	11.04	6.2	1025.4	1126.7
20.29	11.06	6.2	1025.4	1126.5
20.3	11.06	6.21	1025.3	1127.3
20.31	11.05	6.2	1025.4	1127.2
20.32	11.04	6.2	1025.4	1127.5
20.33	11.05	6.2	1025.6	1127.1
20.34	11.06	6.2	1025.6	1127.4
20.35	11.05	6.19	1025.7	1127.6
20.36	11.05	6.2	1025.6	1127.6
20.37	11.06	6.2	1025.5	1126.6
20.38	11.05	6.2	1025.6	1127.4
20.39	11.05	6.19	1025.6	1127.3
20.4	11.05	6.19	1025.4	1128.0
20.41	11.06	6.19	1025.5	1127.8
20.42	11.06	6.19	1025.3	1127.1
20.43	11.06	6.19	1025.4	1128.2
20.44	11.07	6.2	1025.3	1128.2
20.45	11.05	6.19	1025.4	1127.4
20.46	11.05	6.19	1025.5	1127.5
20.47	11.05	6.18	1025.5	1128.1
20.48	11.05	6.18	1025.3	1128.0
20.49	11.06	6.19	1025.4	1127.9
20.5	11.05	6.18	1025.2	1127.9
20.51	11.05	6.18	1025.5	1127.8
20.52	11.06	6.18	1025.2	1127.8
20.53	11.06	6.18	1025.2	1127.7
20.54	11.05	6.18	1025.6	1127.9
20.55	11.03	6.17	1025.4	1127.8
20.56	11.06	6.18	1025.2	1128.6
20.57	11.05	6.18	1025.2	1128.3
20.58	11.05	6.18	1025.2	1127.9
20.59	11.05	6.18	1025.6	1128.1
20.6	11.05	6.17	1025.2	1128.4
20.61	11.03	6.17	1025.2	1128.2
20.62	11.05	6.17	1025.3	1128.6
20.63	11.05	6.17	1025.4	1128.4
20.64	11.07	6.18	1025.5	1128.2
20.65	11.06	6.17	1025.1	1128.5
20.66	11.04	6.16	1025.2	1128.7
20.67	11.06	6.17	1025.2	1128.5
20.68	11.06	6.17	1025.3	1127.6
20.69	11.05	6.17	1025.3	1128.3
20.7	11.05	6.17	1025.4	1128.3
20.71	11.05	6.16	1025.4	1128.8
20.72	11.06	6.17	1025.4	1128.4
20.73	11.05	6.17	1025.2	1128.7
20.74	11.06	6.16	1025.3	1128.8
20.75	11.05	6.16	1025.3	1128.9
20.76	11.06	6.16	1025.4	1128.8
20.77	11.07	6.17	1025.5	1128.7
20.78	11.05	6.16	1025.2	1128.9
20.79	11.05	6.16	1025.3	1128.7
20.8	11.06	6.16	1025.4	1129.0
20.81	11.05	6.16	1025.4	1128.5
20.82	11.05	6.15	1025.6	1129.2
20.83	11.06	6.16	1025.4	1128.9
20.84	11.04	6.15	1025.4	1129.4
20.85	11.06	6.15	1025.4	1129.1
20.86	11.05	6.15	1025.2	1128.8
20.87	11.07	6.16	1025.4	1129.2
20.88	11.06	6.16	1025.0	1128.7
20.89	11.05	6.14	1025.5	1128.7
20.9	11.04	6.15	1025.4	1129.1
20.91	11.05	6.15	1025.1	1129.8
20.92	11.06	6.15	1025.2	1129.8
20.93	11.07	6.15	1025.5	1129.5
20.94	11.05	6.14	1025.6	1129.2
20.95	11.05	6.14	1025.4	1129.7
20.96	11.05	6.15	1025.4	1129.3
20.97	11.07	6.15	1025.2	1129.7
20.98	11.05	6.14	1025.2	1129.2
20.99	11.05	6.14	1025.2	1130.0
21.0	11.05	6.14	1025.4	1129.8
21.01	11.05	6.14	1025.5	1129.4
21.02	11.05	6.14	1025.2	1129.6
21.03	11.04	6.14	1025.3	1129.6
21.04	11.06	6.14	1025.1	1129.2
21.05	11.06	6.14	1025.3	1129.9
21.06	11.05	6.13	1025.4	1129.8
21.07	11.05	6.14	1025.4	1129.7
21.08	11.05	6.14	1025.3	1129.6
21.09	11.06	6.13	1025.3	1129.9
21.1	11.04	6.13	1025.2	1130.4
21.11	11.06	6.13	1025.2	1129.5
21.12	11.05	6.13	1025.4	1130.2
21.13	11.06	6.13	1025.3	1129.6
21.14	11.04	6.13	1025.4	1129.7
21.15	11.06	6.13	1025.2	1129.3
21.16	11.06	6.13	1025.4	1130.3
21.17	11.07	6.13	1025.1	1129.6
21.18	11.06	6.12	1025.0	1130.1
21.19	11.05	6.12	1025.1	1130.4
21.2	11.06	6.13	1025.6	1130.2
21.21	11.05	6.13	1025.2	1130.2
21.22	11.05	6.12	1025.4	1130.1
21.23	11.06	6.13	1025.1	1130.4
21.24	11.06	6.12	1025.2	1129.7
21.25	11.05	6.12	1025.1	1130.2
21.26	11.06	6.12	1024.8	1130.5
21.27	11.06	6.13	1024.8	1130.2
21.28	11.06	6.12	1024.7	1130.0
21.29	11.07	6.12	1024.7	1130.6
21.3	11.06	6.12	1024.6	1130.6
21.31	11.04	6.12	1024.9	1130.5
21.32	11.05	6.11	1024.6	1130.2
21.33	11.05	6.12	1024.9	1130.5
21.34	11.06	6.12	1024.8	1130.4
21.35	11.04	6.11	1024.6	1130.7
21.36	11.05	6.11	1024.7	1131.0
21.37	11.06	6.12	1024.8	1130.2
21.38	11.06	6.11	1025.0	1130.9
21.39	11.06	6.11	1024.8	1130.6
21.4	11.07	6.11	1024.7	1130.9
21.41	11.04	6.11	1025.0	1130.2
21.42	11.07	6.11	1025.0	1131.0
21.43	11.05	6.11	1024.8	1131.6
21.44	11.04	6.1	1024.7	1131.0
21.45	11.06	6.11	1024.9	1131.3
21.46	11.06	6.11	1024.8	1130.6
21.47	11.05	6.1	1024.6	1131.6
21.48	11.07	6.11	1025.0	1131.0
21.49	11.06	6.11	1024.7	1131.0
21.5	11.05	6.1	1024.8	1130.8
21.51	11.06	6.1	1025.0	1131.0
21.52	11.07	6.1	1024.8	1131.0
21.53	11.06	6.1	1024.9	1131.0
21.54	11.05	6.09	1024.9	1130.9
21.55	11.06	6.1	1024.9	1131.5
21.56	11.06	6.1	1024.7	1130.9
21.57	11.06	6.1	1024.9	1130.6
21.58	11.05	6.1	1025.0	1131.2
21.59	11.06	6.1	1024.8	1130.9
21.6	11.06	6.1	1024.6	1131.6
21.61	11.05	6.09	1024.6	1130.6
21.62	11.06	6.1	1024.9	1131.2
21.63	11.06	6.1	1025.0	1130.5
21.64	11.04	6.09	1024.8	1131.8
21.65	11.05	6.09	1024.8	1131.3
21.66	11.05	6.09	1024.6	1131.4
21.67	11.06	6.08	1024.9	1131.1
21.68	11.05	6.09	1024.9	1130.8
21.69	11.06	6.09	1024.6	1131.6
21.7	11.06	6.09	1024.6	1131.3
21.71	11.05	6.09	1024.7	1131.3
21.72	11.06	6.09	1024.6	1131.2
21.73	11.07	6.09	1024.5	1131.9
21.74	11.04	6.08	1024.8	1131.5
21.75	11.05	6.09	1024.8	1131.5
21.76	11.06	6.09	1025.0	1131.7
21.77	11.04	6.07	1024.6	1131.8
21.78	11.05	6.08	1024.8	1132.0
21.79	11.06	6.08	1025.0	1132.0
21.8	11.04	6.08	1024.7	1131.7
21.81	11.05	6.08	1024.7	1131.6
21.82	11.06	6.08	1024.5	1132.6
21.83	11.05	6.07	1024.6	1131.9
21.84	11.05	6.07	1024.6	1132.6
21.85	11.05	6.08	1024.4	1132.1
21.86	11.06	6.08	1024.6	1132.2
21.87	11.05	6.07	1024.7	1132.4
21.88	11.06	6.07	1024.4	1132.4
21.89	11.05	6.07	1024.5	1132.1
21.9	11.05	6.07	1024.5	1132.5
21.91	11.06	6.07	1024.7	1132.0
21.92	11.06	6.07	1024.5	1132.4
21.93	11.04	6.07	1024.4	1132.4
21.94	11.06	6.07	1024.5	1132.1
21.95	11.06	6.07	1024.2	1132.9
21.96	11.06	6.06	1024.6	1132.0
21.97	11.06	6.07	1024.1	1131.6
21.98	11.06	6.07	1024.5	1131.8
21.99	11.05	6.07	1024.3	1132.0
22.0	11.06	6.07	1024.5	1131.9
22.01	11.06	6.07	1024.6	1133.1
22.02	11.07	6.07	1024.6	1132.1
22.03	11.04	6.06	1024.6	1132.4
22.04	11.06	6.07	1024.3	1132.6
22.05	11.06	6.06	1024.3	1132.5
22.06	11.05	6.06	1024.4	1131.8
22.07	11.05	6.06	1024.1	1132.3
22.08	11.06	6.06	1024.1	1132.2
22.09	11.05	6.05	1024.1	1132.2
22.1	11.05	6.06	1024.0	1131.7
22.11	11.05	6.05	1024.1	1131.7
22.12	11.06	6.06	1024.1	1132.6
22.13	11.05	6.05	1024.1	1132.2
22.14	11.06	6.06	1024.1	1132.4
22.15	11.04	6.05	1024.1	1132.1
22.16	11.06	6.05	1024.0	1133.1
22.17	11.05	6.05	1024.2	1132.8
22.18	11.06	6.05	1024.0	1132.8
22.19	11.04	6.05	1024.1	1132.3
22.2	11.06	6.05	1024.0	1132.0
22.21	11.06	6.05	1024.0	1133.4
22.22	11.05	6.05	1024.2	1132.8
22.23	11.07	6.06	1024.0	1133.0
22.24	11.05	6.04	1024.2	1132.5
22.25	11.06	6.05	1024.0	1132.5
22.26	11.05	6.04	1023.9	1132.7
22.27	11.06	6.04	1024.0	1132.5
22.28	11.05	6.05	1023.9	1132.2
22.29	11.06	6.05	1023.9	1132.4
22.3	11.05	6.04	1023.7	1132.3
22.31	11.04	6.04	1023.8	1132.9
22.32	11.05	6.04	1023.8	1133.0
22.33	11.06	6.04	1023.9	1132.7
22.34	11.05	6.04	1023.9	1133.1
22.35	11.06	6.04	1023.9	1132.6
22.36	11.06	6.04	1023.8	1133.0
22.37	11.06	6.04	1023.8	1132.1
22.38	11.05	6.04	1023.6	1132.9
22.39	11.07	6.04	1023.8	1132.2
22.4	11.05	6.04	1023.5	1132.6
22.41	11.06	6.03	1024.0	1132.6
22.42	11.06	6.04	1023.7	1133.0
22.43	11.07	6.04	1023.7	1133.2
22.44	11.06	6.03	1024.1	1132.7
22.45	11.07	6.04	1023.8	1132.4
22.46	11.06	6.03	1024.2	1132.2
22.47	11.06	6.03	1024.1	1133.2
22.48	11.06	6.03	1024.0	1132.8
22.49	11.06	6.03	1024.0	1132.1
22.5	11.05	6.03	1023.9	1132.2
22.51	11.05	6.03	1023.8	1132.9
22.52	11.05	6.03	1023.9	1132.4
22.53	11.05	6.03	1024.0	1132.9
22.54	11.06	6.03	1023.6	1133.0
22.55	11.05	6.03	1023.8	1133.0
22.56	11.05	6.02	1023.9	1132.9
22.57	11.06	6.03	1023.8	1132.5
22.58	11.05	6.02	1023.8	1132.8
22.59	11.07	6.03	1023.8	1132.5
22.6	11.05	6.02	1023.8	1133.5
22.61	11.06	6.02	1023.8	1133.0
22.62	11.06	6.02	1023.8	1132.7
22.63	11.06	6.02	1023.8	1132.7
22.64	11.07	6.02	1023.8	1132.9
22.65	11.06	6.02	1024.1	1133.0
22.66	11.06	6.02	1023.7	1133.5
22.67	11.05	6.02	1023.9	1133.3
22.68	11.07	6.02	1023.7	1132.2
22.69	11.07	6.02	1023.9	1133.1
22.7	11.07	6.02	1023.8	1133.1
22.71	11.05	6.02	1023.5	1132.9
22.72	11.06	6.01	1023.7	1132.8
22.73	11.06	6.01	1023.5	1133.7
22.74	11.07	6.02	1023.7	1133.6
22.75	11.06	6.01	1023.6	1133.7
22.76	11.06	6.01	1023.5	1133.1
22.77	11.06	6.01	1023.7	1134.0
22.78	11.06	6.01	1023.8	1133.9
22.79	11.06	6.01	1023.6	1133.8
22.8	11.05	6.01	1023.6	1133.2
22.81	11.06	6.01	1023.5	1133.5
22.82	11.06	6.01	1023.6	1133.9
22.83	11.05	6.0	1023.5	1133.4
22.84	11.06	6.0	1023.5	1134.0
22.85	11.05	6.01	1023.6	1133.6
22.86	11.06	6.01	1023.7	1133.7
22.87	11.05	6.0	1023.5	1134.0
22.88	11.05	6.0	1023.3	1134.1
22.89	11.05	6.0	1023.4	1133.6
22.9	11.05	6.0	1023.3	1133.9
22.91	11.05	6.0	1023.2	1134.1
22.92	11.06	6.0	1023.5	1133.9
22.93	11.06	6.0	1023.4	1133.9
22.94	11.05	6.0	1023.5	1133.6
22.95	11.06	6.0	1023.5	1133.6
22.96	11.05	5.99	1023.2	1133.7
22.97	11.07	6.0	1023.3	1133.8
22.98	11.05	6.0	1023.4	1133.5
22.99	11.06	6.0	1023.5	1133.7
23.0	11.05	5.99	1023.2	1133.7
23.01	11.06	5.99	1023.4	1134.0
23.02	11.05	5.99	1023.3	1134.0
23.03	11.07	6.0	1023.2	1133.4
23.04	11.05	5.99	1023.1	1134.0
23.05	11.05	5.99	1023.4	1133.9
23.06	11.06	5.99	1023.2	1133.9
23.07	11.06	5.99	1023.3	1133.8
23.08	11.06	5.99	1023.2	1133.8
23.09	11.06	5.99	1023.2	1133.9
23.1	11.06	5.99	1023.5	1134.2
23.11	11.06	5.99	1023.1	1133.8
23.12	11.05	5.98	1023.1	1134.1
23.13	11.06	5.99	1023.2	1133.9
23.14	11.06	5.99	1023.1	1133.8
23.15	11.06	5.98	1023.2	1134.0
23.16	11.07	5.99	1023.4	1133.8
23.17	11.06	5.98	1023.2	1133.8
23.18	11.06	5.99	1023.4	1133.8
23.19	11.05	5.98	1023.2	1134.1
23.2	11.06	5.98	1022.9	1133.5
23.21	11.06	5.98	1023.2	1133.9
23.22	11.06	5.98	1022.9	1134.3
23.23	11.06	5.98	1023.1	1134.0
23.24	11.06	5.98	1023.2	1133.4
23.25	11.06	5.98	1023.2	1134.1
23.26	11.06	5.98	1023.0	1134.8
23.27	11.05	5.98	1022.9	1134.1
23.28	11.06	5.98	1023.1	1134.3
23.29	11.06	5.98	1022.8	1133.9
23.3	11.06	5.98	1022.7	1134.2
23.31	11.05	5.97	1022.7	1134.2
23.32	11.05	5.97	1022.7	1134.3
23.33	11.05	5.97	1022.8	1133.8
23.34	11.06	5.98	1022.7	1134.2
23.35	11.05	5.97	1022.8	1134.3
23.36	11.06	5.97	1022.7	1134.5
23.37	11.06	5.97	1022.6	1134.3
23.38	11.07	5.97	1023.0	1134.6
23.39	11.05	5.97	1022.6	1134.1
23.4	11.06	5.97	1022.8	1134.3
23.41	11.06	5.97	1022.6	1134.2
23.42	11.05	5.97	1022.5	1134.3
23.43	11.05	5.96	1022.8	1134.2
23.44	11.07	5.97	1022.7	1134.2
23.45	11.05	5.97	1022.8	1134.2
23.46	11.06	5.97	1022.3	1133.9
23.47	11.05	5.96	1022.6	1134.4
23.48	11.06	5.96	1022.4	1134.1
23.49	11.05	5.96	1022.6	1134.0
23.5	11.06	5.96	1022.7	1134.1
23.51	11.05	5.96	1022.4	1134.0
23.52	11.06	5.96	1022.7	1134.4
23.53	11.06	5.96	1022.5	1134.2
23.54	11.07	5.96	1022.8	1134.0
23.55	11.06	5.96	1022.5	1133.6
23.56	11.06	5.96	1022.5	1134.3
23.57	11.05	5.96	1022.4	1134.4
23.58	11.06	5.95	1022.5	1134.4
23.59	11.06	5.96	1022.6	1133.7
23.6	11.05	5.96	1022.5	1134.0
23.61	11.05	5.95	1022.4	1134.6
23.62	11.06	5.96	1022.6	1134.3
23.63	11.04	5.95	1022.3	1134.5
23.64	11.06	5.95	1022.5	1134.1
23.65	11.05	5.95	1022.3	1134.2
23.66	11.05	5.95	1022.3	1134.5
23.67	11.06	5.95	1022.4	1134.5
23.68	11.06	5.95	1022.3	1134.0
23.69	11.06	5.95	1022.6	1134.4
23.7	11.06	5.95	1022.4	1134.6
23.71	11.07	5.95	1022.1	1134.1
23.72	11.06	5.95	1022.3	1134.3
23.73	11.06	5.95	1022.3	1134.2
23.74	11.05	5.95	1022.5	1134.6
23.75	11.05	5.94	1022.0	1134.2
23.76	11.05	5.94	1022.2	1134.7
23.77	11.06	5.95	1022.3	1134.2
23.78	11.06	5.95	1022.3	1134.3
23.79	11.06	5.94	1022.3	1134.4
23.8	11.05	5.94	1022.2	1134.3
23.81	11.06	5.94	1022.3	1134.1
23.82	11.06	5.94	1022.1	1134.2
23.83	11.06	5.94	1022.1	1134.3
23.84	11.05	5.94	1021.9	1134.5
23.85	11.06	5.94	1022.0	1134.0
23.86	11.06	5.94	1022.2	1134.4
23.87	11.06	5.94	1022.2	1134.5
23.88	11.06	5.94	1022.2	1134.6
23.89	11.06	5.94	1022.1	1134.6
23.9	11.06	5.94	1022.1	1134.2
23.91	11.07	5.94	1022.0	1134.4
23.92	11.05	5.93	1022.2	1134.4
23.93	11.06	5.94	1022.0	1133.9
23.94	11.06	5.94	1022.3	1133.7
23.95	11.07	5.94	1022.1	1134.4
23.96	11.06	5.93	1022.2	1134.3
23.97	11.06	5.93	1022.1	1134.6
23.98	11.06	5.93	1021.8	1134.0
23.99	11.06	5.93	1021.8	1134.4
24.0	11.06	5.93	1021.8	1134.5
24.01	11.06	5.93	1021.9	1134.4
24.02	11.05	5.93	1021.9	1134.3
24.03	11.06	5.93	1021.8	1134.3
24.04	11.05	5.93	1021.7	1134.8
24.05	11.06	5.93	1021.8	1134.0
24.06	11.06	5.93	1021.9	1134.2
24.07	11.06	5.93	1021.8	1133.9
24.08	11.05	5.92	1021.7	1134.5
24.09	11.06	5.93	1021.9	1134.2
24.1	11.07	5.93	1021.8	1134.2
24.11	11.05	5.93	1021.9	1134.0
24.12	11.05	5.92	1021.8	1134.6
24.13	11.05	5.92	1021.6	1134.7
24.14	11.06	5.93	1021.7	1134.4
24.15	11.06	5.92	1022.0	1134.0
24.16	11.06	5.93	1021.6	1134.1
24.17	11.06	5.92	1021.7	1134.7
24.18	11.06	5.92	1022.0	1134.9
24.19	11.06	5.93	1021.9	1134.7
24.2	11.07	5.92	1021.7	1134.4
24.21	11.05	5.92	1021.6	1134.7
24.22	11.06	5.92	1021.6	1134.4
24.23	11.06	5.92	1021.9	1134.3
24.24	11.06	5.92	1021.6	1134.1
24.25	11.06	5.92	1021.5	1134.6
24.26	11.05	5.91	1021.8	1134.7
24.27	11.06	5.92	1021.5	1134.6
24.28	11.06	5.92	1021.6	1134.0
24.29	11.05	5.91	1021.6	1134.5
24.3	11.06	5.91	1021.8	1134.7
24.31	11.05	5.91	1021.5	1134.6
24.32	11.06	5.92	1021.6	1134.8
24.33	11.05	5.91	1021.6	1134.1
24.34	11.04	5.91	1021.6	1134.3
24.35	11.06	5.92	1021.5	1134.7
24.36	11.05	5.91	1021.5	1134.2
24.37	11.05	5.91	1021.5	1134.1
24.38	11.05	5.91	1021.4	1135.2
24.39	11.06	5.91	1021.4	1134.8
24.4	11.06	5.91	1021.6	1134.3
24.41	11.05	5.9	1021.4	1134.0
24.42	11.05	5.91	1021.5	1134.6
24.43	11.06	5.91	1021.6	1134.2
24.44	11.05	5.9	1021.5	1134.2
24.45	11.06	5.91	1021.6	1134.3
24.46	11.06	5.9	1021.5	1133.8
24.47	11.06	5.91	1021.4	1134.5
24.48	11.06	5.91	1021.5	1134.3
24.49	11.05	5.9	1021.6	1134.7
24.5	11.05	5.9	1021.6	1134.6
24.51	11.07	5.9	1021.3	1134.6
24.52	11.06	5.9	1021.5	1134.5
24.53	11.06	5.9	1021.2	1134.7
24.54	11.05	5.9	1021.2	1134.3
24.55	11.06	5.9	1021.3	1134.3
24.56	11.05	5.9	1021.2	1134.8
24.57	11.07	5.9	1021.1	1134.5
24.58	11.05	5.9	1020.9	1134.6
24.59	11.06	5.9	1021.2	1134.7
24.6	11.06	5.9	1021.0	1134.7
24.61	11.06	5.9	1020.8	1135.0
24.62	11.05	5.89	1021.2	1134.9
24.63	11.07	5.9	1020.8	1134.1
24.64	11.05	5.89	1021.0	1134.4
24.65	11.06	5.89	1020.9	1134.4
24.66	11.05	5.89	1020.8	1134.7
24.67	11.05	5.89	1020.8	1134.7
24.68	11.05	5.89	1020.9	1134.9
24.69	11.06	5.9	1021.2	1134.5
24.7	11.06	5.89	1021.0	1134.5
24.71	11.06	5.89	1020.8	1134.8
24.72	11.05	5.89	1021.0	1134.8
24.73	11.06	5.89	1020.8	1134.9
24.74	11.06	5.89	1021.0	1134.8
24.75	11.07	5.89	1020.7	1134.8
24.76	11.07	5.89	1020.6	1134.3
24.77	11.06	5.89	1020.7	1135.0
24.78	11.05	5.89	1020.6	1134.4
24.79	11.07	5.89	1020.8	1134.7
24.8	11.06	5.89	1020.6	1134.4
24.81	11.05	5.89	1020.6	1134.3
24.82	11.06	5.89	1020.8	1134.6
24.83	11.05	5.89	1020.6	1134.4
24.84	11.06	5.88	1020.6	1134.7
24.85	11.06	5.88	1020.7	1134.7
24.86	11.06	5.88	1020.4	1134.6
24.87	11.06	5.88	1020.6	1134.9
24.88	11.05	5.88	1020.7	1134.3
24.89	11.05	5.88	1020.7	1134.2
24.9	11.06	5.88	1020.5	1134.9
24.91	11.05	5.88	1020.6	1134.7
24.92	11.06	5.88	1020.7	1134.9
24.93	11.05	5.88	1020.3	1134.3
24.94	11.06	5.88	1020.5	1134.7
24.95	11.06	5.88	1020.5	1134.8
24.96	11.06	5.88	1020.2	1134.7
24.97	11.06	5.87	1020.4	1134.5
24.98	11.06	5.87	1020.4	1134.8
24.99	11.05	5.87	1020.4	1134.7
25.0	11.06	5.87	1020.4	1134.5
25.01	11.05	5.88	1020.4	1134.4
25.02	11.06	5.88	1020.5	1134.3
25.03	11.05	5.87	1020.2	1134.6
25.04	11.06	5.88	1020.3	1134.6
25.05	11.07	5.88	1020.3	1134.8
25.06	11.05	5.87	1020.4	1134.4
25.07	11.05	5.87	1020.3	1134.9
25.08	11.05	5.87	1020.0	1134.5
25.09	11.05	5.87	1020.2	1134.9
25.1	11.05	5.87	1020.1	1134.9
25.11	11.06	5.87	1020.2	1134.8
25.12	11.04	5.87	1020.2	1134.3
25.13	11.05	5.87	1020.2	1134.6
25.14	11.05	5.87	1020.3	1134.6
25.15	11.05	5.87	1020.2	1134.2
25.16	11.05	5.87	1019.8	1134.7
25.17	11.05	5.87	1020.0	1134.2
25.18	11.06	5.86	1020.0	1134.1
25.19	11.06	5.87	1020.2	1133.8
25.2	11.05	5.86	1020.3	1134.6
25.21	11.06	5.86	1019.9	1134.1
25.22	11.05	5.86	1020.2	1133.9
25.23	11.06	5.87	1019.7	1133.9
25.24	11.06	5.86	1020.1	1134.2
25.25	11.07	5.87	1019.8	1134.2
25.26	11.06	5.86	1019.9	1134.7
25.27	11.06	5.86	1019.9	1134.2
25.28	11.06	5.86	1019.9	1134.0
25.29	11.06	5.86	1019.9	1134.2
25.3	11.06	5.86	1020.1	1134.1
25.31	11.06	5.86	1019.4	1134.2
25.32	11.05	5.86	1019.9	1134.3
25.33	11.06	5.86	1019.6	1134.6
25.34	11.05	5.86	1019.7	1134.6
25.35	11.06	5.86	1019.9	1134.6
25.36	11.05	5.86	1019.6	1133.8
25.37	11.06	5.86	1019.6	1134.4
25.38	11.05	5.85	1019.9	1134.3
25.39	11.05	5.85	1019.8	1134.5
25.4	11.05	5.85	1019.8	1133.6
25.41	11.07	5.86	1019.7	1134.2
25.42	11.06	5.86	1019.6	1134.5
25.43	11.06	5.85	1019.6	1134.0
25.44	11.06	5.85	1019.9	1134.2
25.45	11.05	5.85	1019.8	1133.8
25.46	11.07	5.85	1019.8	1134.2
25.47	11.06	5.85	1019.6	1134.3
25.48	11.07	5.85	1019.9	1134.1
25.49	11.06	5.85	1019.7	1133.9
25.5	11.05	5.85	1019.5	1134.0
25.51	11.07	5.85	1019.4	1134.2
25.52	11.06	5.85	1019.8	1134.3
25.53	11.04	5.84	1019.3	1134.0
25.54	11.05	5.85	1019.4	1134.3
25.55	11.05	5.85	1019.5	1134.5
25.56	11.06	5.85	1019.4	1133.9
25.57	11.05	5.85	1019.4	1133.8
25.58	11.05	5.85	1019.5	1134.0
25.59	11.06	5.85	1019.3	1134.5
25.6	11.07	5.85	1019.4	1134.4
25.61	11.06	5.84	1019.6	1134.1
25.62	11.06	5.84	1019.6	1134.1
25.63	11.05	5.84	1019.5	1134.2
25.64	11.07	5.84	1019.6	1134.4
25.65	11.06	5.85	1019.1	1134.6
25.66	11.06	5.84	1019.2	1133.7
25.67	11.06	5.84	1019.6	1134.6
25.68	11.06	5.84	1019.4	1134.5
25.69	11.06	5.84	1019.2	1134.3
25.7	11.08	5.85	1019.3	1133.8
25.71	11.06	5.84	1019.3	1134.2
25.72	11.07	5.84	1019.1	1134.1
25.73	11.05	5.84	1019.2	1134.2
25.74	11.07	5.84	1019.2	1134.4
25.75	11.06	5.84	1019.3	1134.5
25.76	11.05	5.83	1019.2	1134.5
25.77	11.06	5.84	1019.3	1134.2
25.78	11.06	5.84	1019.2	1134.3
25.79	11.06	5.83	1019.4	1133.9
25.8	11.06	5.83	1019.2	1134.5
25.81	11.05	5.83	1019.3	1134.3
25.82	11.05	5.83	1019.2	1134.1
25.83	11.06	5.84	1019.2	1134.1
25.84	11.05	5.83	1019.4	1134.4
25.85	11.06	5.83	1019.1	1134.4
25.86	11.05	5.83	1019.1	1134.2
25.87	11.05	5.83	1019.1	1134.1
25.88	11.05	5.83	1019.1	1134.0
25.89	11.05	5.83	1019.4	1134.4
25.9	11.05	5.83	1019.1	1134.2
25.91	11.05	5.83	1019.1	1134.5
25.92	11.06	5.83	1018.9	1133.6
25.93	11.07	5.83	1019.0	1134.2
25.94	11.05	5.82	1019.2	1133.7
25.95	11.06	5.83	1018.8	1133.9
25.96	11.05	5.83	1019.2	1133.8
25.97	11.06	5.82	1018.8	1133.7
25.98	11.06	5.83	1018.8	1134.5
25.99	11.06	5.82	1018.8	1133.7
26.0	11.06	5.82	1019.0	1133.8
26.01	11.07	5.83	1019.2	1133.4
26.02	11.06	5.83	1018.8	1133.9
26.03	11.06	5.82	1019.0	1134.1
26.04	11.05	5.82	1019.0	1134.0
26.05	11.06	5.82	1018.9	1133.5
26.06	11.06	5.82	1018.9	1134.0
26.07	11.06	5.82	1019.1	1134.1
26.08	11.05	5.82	1018.7	1133.9
26.09	11.06	5.82	1018.7	1134.0
26.1	11.05	5.82	1018.7	1133.4
26.11	11.06	5.82	1018.7	1133.8
26.12	11.06	5.82	1019.1	1134.3
26.13	11.06	5.82	1018.6	1133.1
26.14	11.06	5.82	1018.9	1133.3
26.15	11.05	5.82	1018.7	1133.7
26.16	11.06	5.82	1018.8	1134.1
26.17	11.06	5.82	1018.6	1134.0
26.18	11.06	5.82	1019.1	1133.8
26.19	11.06	5.82	1018.8	1133.9
26.2	11.05	5.81	1018.7	1134.2
26.21	11.06	5.82	1018.6	1134.1
26.22	11.07	5.82	1018.5	1133.5
26.23	11.06	5.82	1018.4	1133.6
26.24	11.06	5.81	1018.5	1134.2
26.25	11.06	5.81	1018.4	1133.7
26.26	11.07	5.81	1018.7	1133.6
26.27	11.04	5.81	1018.7	1132.9
26.28	11.07	5.82	1018.8	1133.6
26.29	11.06	5.81	1018.6	1133.4
26.3	11.06	5.81	1018.4	1133.8
26.31	11.05	5.81	1018.5	1133.5
26.32	11.06	5.81	1018.5	1133.7
26.33	11.06	5.81	1018.4	1134.2
26.34	11.07	5.81	1018.4	1133.8
26.35	11.06	5.81	1018.5	1133.6
26.36	11.06	5.81	1018.6	1133.5
26.37	11.06	5.81	1018.4	1133.9
26.38	11.06	5.81	1018.2	1133.7
26.39	11.06	5.81	1018.5	1134.5
26.4	11.05	5.81	1018.3	1133.2
26.41	11.06	5.8	1018.4	1134.1
26.42	11.06	5.8	1018.1	1133.5
26.43	11.06	5.81	1018.2	1133.5
26.44	11.07	5.81	1018.4	1133.1
26.45	11.06	5.81	1018.4	1133.7
26.46	11.05	5.8	1018.5	1133.4
26.47	11.06	5.8	1018.3	1133.3
26.48	11.06	5.8	1018.2	1133.0
26.49	11.06	5.8	1018.3	1133.2
26.5	11.06	5.8	1018.2	1133.7
26.51	11.06	5.8	1018.3	1133.9
26.52	11.06	5.8	1018.3	1133.7
26.53	11.06	5.8	1018.3	1133.4
26.54	11.06	5.8	1018.4	1134.0
26.55	11.06	5.8	1018.3	1133.6
26.56	11.05	5.8	1018.2	1133.8
26.57	11.07	5.8	1018.2	1133.3
26.58	11.05	5.8	1018.2	1133.4
26.59	11.06	5.8	1018.1	1134.1
26.6	11.06	5.8	1018.0	1133.5
26.61	11.06	5.8	1018.0	1133.6
26.62	11.05	5.8	1018.2	1133.4
26.63	11.05	5.79	1018.2	1133.7
26.64	11.05	5.79	1017.9	1133.6
26.65	11.07	5.8	1017.9	1133.9
26.66	11.05	5.79	1018.0	1132.9
26.67	11.06	5.79	1018.2	1133.6
26.68	11.06	5.8	1017.9	1133.5
26.69	11.06	5.79	1018.1	1133.7
26.7	11.06	5.79	1017.8	1133.4
26.71	11.07	5.8	1018.0	1133.4
26.72	11.06	5.79	1018.1	1132.5
26.73	11.07	5.79	1018.1	1132.6
26.74	11.05	5.79	1018.3	1133.5
26.75	11.07	5.79	1018.1	1132.8
26.76	11.06	5.79	1017.9	1133.2
26.77	11.06	5.79	1017.6	1132.9
26.78	11.06	5.79	1018.2	1133.0
26.79	11.06	5.79	1017.9	1132.4
26.8	11.06	5.79	1017.9	1133.6
26.81	11.06	5.79	1017.9	1132.6
26.82	11.06	5.79	1018.1	1133.2
26.83	11.06	5.79	1018.0	1132.8
26.84	11.05	5.78	1017.8	1132.6
26.85	11.06	5.78	1017.9	1133.2
26.86	11.06	5.79	1018.2	1132.8
26.87	11.05	5.78	1017.9	1132.5
26.88	11.07	5.79	1018.0	1132.1
26.89	11.05	5.78	1017.9	1133.5
26.9	11.06	5.78	1018.1	1133.5
26.91	11.06	5.79	1017.9	1133.1
26.92	11.06	5.78	1018.0	1132.6
26.93	11.06	5.78	1017.9	1133.6
26.94	11.06	5.78	1018.0	1133.4
26.95	11.06	5.78	1017.7	1132.8
26.96	11.06	5.78	1017.7	1132.7
26.97	11.06	5.78	1017.8	1133.1
26.98	11.07	5.78	1017.8	1132.9
26.99	11.06	5.78	1017.8	1132.7
27.0	11.07	5.78	1017.6	1132.7
27.01	11.06	5.78	1017.6	1132.6
27.02	11.06	5.78	1017.6	1133.3
27.03	11.05	5.78	1017.6	1132.8
27.04	11.07	5.78	1017.9	1133.0
27.05	11.06	5.78	1017.7	1132.5
27.06	11.07	5.78	1017.4	1133.6
27.07	11.07	5.78	1017.5	1132.7
27.08	11.06	5.78	1017.6	1133.1
27.09	11.05	5.77	1017.8	1132.2
27.1	11.06	5.77	1017.6	1132.6
27.11	11.05	5.77	1017.8	1133.3
27.12	11.06	5.78	1017.6	1132.7
27.13	11.06	5.77	1017.4	1133.4
27.14	11.05	5.77	1017.8	1132.2
27.15	11.06	5.77	1017.4	1132.7
27.16	11.05	5.77	1017.3	1132.6
27.17	11.05	5.77	1017.5	1133.1
27.18	11.07	5.77	1017.5	1131.9
27.19	11.06	5.77	1017.2	1133.0
27.2	11.06	5.77	1017.6	1133.4
27.21	11.05	5.77	1017.2	1132.4
27.22	11.06	5.77	1017.6	1131.6
27.23	11.06	5.77	1017.4	1132.4
27.24	11.06	5.77	1017.6	1132.9
27.25	11.06	5.77	1017.4	1132.8
27.26	11.06	5.77	1017.4	1132.7
27.27	11.06	5.77	1017.4	1132.1
27.28	11.06	5.77	1017.4	1132.3
27.29	11.07	5.77	1017.6	1132.7
27.3	11.06	5.77	1017.6	1132.6
27.31	11.06	5.76	1017.2	1131.5
27.32	11.06	5.76	1017.4	1132.5
27.33	11.05	5.76	1017.2	1132.6
27.34	11.05	5.76	1017.5	1132.8
27.35	11.07	5.77	1017.2	1132.8
27.36	11.05	5.76	1017.2	1132.5
27.37	11.06	5.76	1017.2	1133.0
27.38	11.06	5.76	1017.3	1132.4
27.39	11.06	5.76	1017.2	1132.6
27.4	11.05	5.76	1017.4	1132.7
27.41	11.07	5.77	1017.0	1133.2
27.42	11.06	5.77	1017.4	1133.0
27.43	11.07	5.76	1017.2	1133.4
27.44	11.06	5.76	1017.2	1132.9
27.45	11.06	5.76	1017.2	1132.7
27.46	11.06	5.76	1017.2	1132.4
27.47	11.07	5.76	1017.2	1133.2
27.48	11.05	5.76	1017.1	1132.9
27.49	11.06	5.76	1017.2	1132.4
27.5	11.07	5.76	1017.1	1132.6
27.51	11.07	5.76	1017.2	1132.1
27.52	11.06	5.76	1017.1	1132.0
27.53	11.06	5.76	1017.3	1132.0
27.54	11.05	5.75	1017.0	1132.8
27.55	11.06	5.76	1017.2	1132.3
27.56	11.06	5.76	1017.2	1133.0
27.57	11.06	5.76	1016.9	1132.0
27.58	11.07	5.76	1017.1	1132.9
27.59	11.06	5.75	1017.2	1132.4
27.6	11.06	5.76	1017.2	1131.9
27.61	11.07	5.76	1017.0	1131.4
27.62	11.06	5.75	1017.0	1132.6
27.63	11.05	5.75	1017.1	1131.9
27.64	11.06	5.75	1016.8	1131.8
27.65	11.06	5.75	1016.9	1132.0
27.66	11.07	5.75	1017.2	1132.1
27.67	11.06	5.75	1016.8	1132.4
27.68	11.06	5.75	1017.2	1132.4
27.69	11.05	5.75	1016.5	1132.0
27.7	11.07	5.75	1016.9	1131.5
27.71	11.06	5.75	1016.8	1132.1
27.72	11.06	5.75	1016.8	1131.7
27.73	11.05	5.75	1016.8	1131.3
27.74	11.07	5.75	1016.9	1131.2
27.75	11.05	5.75	1016.9	1132.1
27.76	11.07	5.75	1016.9	1132.8
27.77	11.06	5.75	1017.0	1132.1
27.78	11.06	5.75	1016.9	1131.8
27.79	11.06	5.75	1016.4	1131.6
27.8	11.06	5.75	1016.9	1132.2
27.81	11.06	5.75	1016.6	1131.9
27.82	11.06	5.75	1017.0	1132.0
27.83	11.05	5.74	1016.8	1131.6
27.84	11.06	5.74	1016.8	1131.7
27.85	11.06	5.74	1016.6	1131.4
27.86	11.06	5.74	1016.7	1131.5
27.87	11.06	5.74	1016.5	1131.3
27.88	11.06	5.75	1016.9	1131.8
27.89	11.06	5.74	1016.5	1131.6
27.9	11.06	5.74	1016.5	1131.8
27.91	11.05	5.74	1016.6	1131.5
27.92	11.07	5.75	1016.4	1131.8
27.93	11.06	5.74	1016.5	1132.1
27.94	11.05	5.74	1016.6	1131.6
27.95	11.06	5.74	1016.7	1131.5
27.96	11.06	5.74	1016.5	1131.5
27.97	11.07	5.74	1016.5	1131.5
27.98	11.07	5.74	1016.6	1131.6
27.99	11.07	5.74	1016.6	1131.9
28.0	11.06	5.74	1016.4	1131.3
28.01	11.06	5.73	1016.5	1131.8
28.02	11.05	5.73	1016.9	1131.8
28.03	11.06	5.73	1016.3	1131.8
28.04	11.06	5.74	1016.7	1131.9
28.05	11.06	5.73	1016.2	1131.8
28.06	11.05	5.73	1016.4	1132.2
28.07	11.06	5.73	1016.4	1131.6
28.08	11.05	5.73	1016.3	1131.9
28.09	11.07	5.74	1016.4	1131.3
28.1	11.06	5.73	1016.4	1132.0
28.11	11.06	5.73	1016.1	1131.8
28.12	11.06	5.74	1016.5	1131.8
28.13	11.06	5.73	1016.2	1130.9
28.14	11.05	5.73	1016.3	1131.8
28.15	11.06	5.73	1016.0	1131.9
28.16	11.07	5.74	1016.3	1131.8
28.17	11.06	5.73	1016.1	1131.0
28.18	11.06	5.73	1016.3	1131.0
28.19	11.05	5.73	1015.9	1131.4
28.2	11.06	5.73	1016.1	1131.6
28.21	11.06	5.73	1015.8	1131.2
28.22	11.06	5.73	1016.0	1131.2
28.23	11.06	5.73	1015.9	1131.9
28.24	11.06	5.73	1016.2	1131.2
28.25	11.06	5.73	1015.7	1132.1
28.26	11.06	5.73	1016.1	1131.0
28.27	11.07	5.73	1015.7	1131.6
28.28	11.06	5.73	1015.9	1131.4
28.29	11.06	5.72	1015.9	1131.3
28.3	11.06	5.73	1016.1	1131.2
28.31	11.05	5.73	1015.9	1130.4
28.32	11.06	5.73	1015.9	1131.0
28.33	11.07	5.73	1015.7	1130.7
28.34	11.07	5.72	1015.6	1130.5
28.35	11.06	5.72	1015.9	1130.7
28.36	11.06	5.72	1016.0	1130.9
28.37	11.05	5.72	1015.6	1130.3
28.38	11.06	5.72	1015.6	1130.8
28.39	11.06	5.72	1015.6	1130.4
28.4	11.05	5.72	1015.8	1131.4
28.41	11.06	5.72	1016.0	1130.7
28.42	11.06	5.72	1016.1	1131.0
28.43	11.05	5.72	1015.6	1130.8
28.44	11.06	5.72	1016.0	1130.3
28.45	11.06	5.72	1015.5	1131.0
28.46	11.07	5.72	1015.8	1130.6
28.47	11.06	5.72	1015.6	1130.8
28.48	11.06	5.72	1015.5	1130.7
28.49	11.06	5.72	1015.7	1131.2
28.5	11.06	5.72	1015.5	1130.6
28.51	11.06	5.71	1015.9	1130.9
28.52	11.05	5.71	1015.7	1130.4
28.53	11.05	5.71	1015.7	1131.3
28.54	11.06	5.72	1015.7	1130.9
28.55	11.06	5.72	1015.7	1129.9
28.56	11.05	5.71	1015.5	1129.7
28.57	11.06	5.71	1015.4	1130.2
28.58	11.05	5.71	1015.5	1130.5
28.59	11.07	5.72	1015.5	1130.0
28.6	11.07	5.72	1015.6	1130.2
28.61	11.06	5.71	1015.6	1129.5
28.62	11.06	5.71	1015.7	1130.3
28.63	11.06	5.72	1015.5	1129.4
28.64	11.06	5.71	1015.4	1130.5
28.65	11.05	5.71	1015.5	1129.7
28.66	11.05	5.71	1015.5	1129.9
28.67	11.06	5.71	1015.3	1130.1
28.68	11.06	5.71	1015.4	1130.2
28.69	11.06	5.71	1015.5	1129.7
28.7	11.07	5.72	1015.4	1129.8
28.71	11.06	5.71	1015.5	1129.8
28.72	11.06	5.71	1015.3	1129.7
28.73	11.06	5.71	1015.4	1129.6
28.74	11.06	5.71	1015.3	1129.3
28.75	11.07	5.71	1015.4	1129.6
28.76	11.06	5.71	1015.4	1129.4
28.77	11.08	5.71	1015.4	1129.5
28.78	11.06	5.7	1015.3	1129.2
28.79	11.06	5.71	1015.4	1130.0
28.8	11.06	5.71	1015.3	1129.2
28.81	11.06	5.71	1015.3	1129.3
28.82	11.07	5.71	1015.4	1129.1
28.83	11.07	5.71	1015.1	1129.3
28.84	11.05	5.7	1015.2	1129.5
28.85	11.05	5.7	1015.2	1129.1
28.86	11.05	5.7	1015.1	1128.8
28.87	11.06	5.7	1015.1	1129.3
28.88	11.06	5.71	1015.2	1129.8
28.89	11.06	5.7	1015.1	1129.8
28.9	11.06	5.71	1015.2	1129.0
28.91	11.06	5.7	1015.0	1129.0
28.92	11.05	5.7	1015.0	1129.6
28.93	11.06	5.7	1014.9	1129.3
28.94	11.06	5.7	1014.6	1129.3
28.95	11.06	5.7	1014.7	1128.9
28.96	11.06	5.7	1014.9	1129.8
28.97	11.06	5.7	1014.5	1129.0
28.98	11.07	5.7	1014.7	1129.4
28.99	11.06	5.7	1014.7	1129.5
29.0	11.07	5.7	1014.9	1129.4
29.01	11.06	5.7	1014.5	1129.4
29.02	11.06	5.7	1014.8	1129.5
29.03	11.07	5.7	1014.7	1129.2
29.04	11.06	5.7	1014.6	1128.8
29.05	11.06	5.7	1014.6	1129.4
29.06	11.06	5.7	1014.7	1129.1
29.07	11.06	5.7	1014.6	1129.4
29.08	11.06	5.7	1014.5	1128.8
29.09	11.06	5.7	1014.6	1129.0
29.1	11.06	5.69	1014.4	1129.2
29.11	11.07	5.69	1014.4	1128.2
29.12	11.06	5.7	1014.7	1128.5
29.13	11.07	5.7	1014.5	1129.5
29.14	11.08	5.7	1014.5	1129.8
29.15	11.05	5.69	1014.3	1129.0
29.16	11.06	5.69	1014.6	1128.6
29.17	11.05	5.69	1014.4	1128.7
29.18	11.06	5.69	1014.2	1129.0
29.19	11.06	5.69	1014.3	1129.0
29.2	11.07	5.69	1014.5	1129.1
29.21	11.06	5.69	1014.2	1128.6
29.22	11.07	5.69	1014.3	1129.4
29.23	11.04	5.69	1014.3	1129.0
29.24	11.05	5.69	1014.3	1128.2
29.25	11.06	5.69	1014.1	1128.3
29.26	11.06	5.69	1014.2	1128.4
29.27	11.07	5.7	1014.1	1129.0
29.28	11.05	5.68	1014.1	1128.6
29.29	11.06	5.69	1014.3	1128.7
29.3	11.06	5.69	1014.1	1128.7
29.31	11.05	5.69	1013.8	1129.0
29.32	11.05	5.69	1014.1	1128.5
29.33	11.06	5.69	1014.1	1128.7
29.34	11.07	5.69	1014.0	1128.5
29.35	11.06	5.68	1013.9	1128.7
29.36	11.06	5.69	1013.9	1128.8
29.37	11.06	5.69	1014.0	1128.6
29.38	11.06	5.69	1013.7	1128.1
29.39	11.06	5.68	1013.8	1128.6
29.4	11.07	5.69	1013.4	1128.8
29.41	11.06	5.69	1013.7	1127.7
29.42	11.06	5.69	1013.6	1127.8
29.43	11.06	5.69	1013.6	1127.2
29.44	11.05	5.68	1013.6	1128.1
29.45	11.06	5.69	1013.8	1128.2
29.46	11.06	5.69	1013.7	1128.0
29.47	11.06	5.68	1013.6	1127.6
29.48	11.06	5.69	1013.7	1128.6
29.49	11.06	5.68	1013.6	1128.3
29.5	11.06	5.68	1013.4	1127.9
29.51	11.06	5.68	1013.6	1127.4
29.52	11.05	5.68	1013.6	1127.7
29.53	11.06	5.68	1013.7	1127.7
29.54	11.06	5.68	1013.5	1127.3
29.55	11.07	5.68	1013.4	1128.5
29.56	11.06	5.68	1013.5	1127.0
29.57	11.06	5.68	1013.4	1127.8
29.58	11.07	5.68	1013.4	1127.4
29.59	11.06	5.68	1013.5	1127.7
29.6	11.05	5.67	1013.5	1127.3
29.61	11.06	5.68	1013.4	1127.8
29.62	11.06	5.68	1013.5	1127.8
29.63	11.07	5.68	1013.6	1127.5
29.64	11.07	5.68	1013.5	1127.1
29.65	11.05	5.67	1013.3	1127.7
29.66	11.06	5.68	1013.5	1127.5
29.67	11.05	5.67	1013.1	1127.4
29.68	11.05	5.68	1013.5	1127.1
29.69	11.06	5.68	1013.4	1126.8
29.7	11.06	5.68	1013.5	1127.7
29.71	11.06	5.68	1013.5	1127.2
29.72	11.05	5.67	1013.4	1127.5
29.73	11.07	5.68	1013.3	1127.1
29.74	11.05	5.67	1013.4	1126.9
29.75	11.06	5.67	1013.4	1127.4
29.76	11.07	5.68	1013.4	1127.3
29.77	11.06	5.67	1013.4	1126.7
29.78	11.07	5.68	1013.4	1127.0
29.79	11.06	5.67	1013.4	1126.9
29.8	11.07	5.67	1013.5	1127.5
29.81	11.06	5.67	1013.3	1127.3
29.82	11.07	5.67	1013.5	1126.9
29.83	11.06	5.67	1013.2	1127.6
29.84	11.06	5.67	1013.6	1127.4
29.85	11.06	5.67	1013.1	1127.0
29.86	11.06	5.67	1013.3	1126.7
29.87	11.06	5.67	1013.2	1127.4
29.88	11.06	5.67	1013.4	1127.3
29.89	11.06	5.67	1013.3	1127.2
29.9	11.08	5.67	1013.2	1126.9
29.91	11.06	5.67	1013.0	1127.2
29.92	11.06	5.67	1013.1	1127.5
29.93	11.06	5.67	1013.0	1127.1
29.94	11.06	5.67	1013.1	1127.1
29.95	11.05	5.66	1013.4	1127.0
29.96	11.07	5.67	1013.2	1127.1
29.97	11.05	5.67	1012.9	1127.3
29.98	11.06	5.67	1013.2	1127.2
29.99	11.06	5.67	1012.9	1126.0
30.0	11.06	5.67	1013.2	1127.0
30.01	11.06	5.66	1013.0	1126.7
30.02	11.06	5.67	1013.2	1126.9
30.03	11.06	5.66	1013.1	1127.1
30.04	11.08	5.67	1013.2	1126.9
30.05	11.06	5.66	1013.3	1126.9
30.06	11.05	5.66	1013.1	1126.7
30.07	11.06	5.66	1013.1	1126.4
30.08	11.06	5.66	1013.1	1126.4
30.09	11.06	5.66	1013.4	1126.2
30.1	11.06	5.67	1013.1	1126.3
30.11	11.06	5.66	1013.1	1126.8
30.12	11.06	5.66	1013.3	1126.6
30.13	11.05	5.66	1013.0	1126.9
30.14	11.05	5.66	1013.0	1126.4
30.15	11.06	5.66	1013.0	1126.4
30.16	11.05	5.66	1013.2	1125.6
30.17	11.07	5.66	1012.8	1126.6
30.18	11.06	5.66	1013.1	1126.9
30.19	11.06	5.66	1013.1	1126.6
30.2	11.06	5.66	1013.1	1126.4
30.21	11.05	5.65	1013.0	1126.0
30.22	11.05	5.66	1013.1	1126.4
30.23	11.06	5.66	1012.8	1126.1
30.24	11.05	5.66	1012.9	1125.9
30.25	11.07	5.66	1012.9	1125.8
30.26	11.05	5.65	1012.8	1126.7
30.27	11.07	5.66	1012.4	1126.8
30.28	11.06	5.65	1012.9	1126.5
30.29	11.06	5.65	1012.9	1126.0
30.3	11.06	5.66	1013.0	1126.4
30.31	11.06	5.66	1012.7	1126.3
30.32	11.06	5.66	1012.7	1126.6
30.33	11.07	5.66	1013.0	1125.9
30.34	11.06	5.65	1012.9	1125.9
30.35	11.05	5.65	1012.7	1126.5
30.36	11.05	5.65	1012.8	1126.3
30.37	11.06	5.65	1012.6	1125.8
30.38	11.06	5.65	1012.7	1125.8
30.39	11.07	5.66	1012.5	1126.4
30.4	11.07	5.65	1012.6	1126.2
30.41	11.06	5.65	1012.6	1126.3
30.42	11.05	5.65	1012.7	1126.1
30.43	11.06	5.65	1012.8	1126.3
30.44	11.06	5.65	1012.7	1126.8
30.45	11.06	5.65	1012.5	1126.0
30.46	11.06	5.65	1012.5	1126.0
30.47	11.06	5.65	1012.5	1126.0
30.48	11.06	5.65	1012.5	1126.1
30.49	11.06	5.65	1012.6	1125.3
30.5	11.06	5.65	1012.5	1126.1
30.51	11.06	5.65	1012.4	1125.4
30.52	11.06	5.65	1012.5	1126.0
30.53	11.06	5.65	1012.4	1125.7
30.54	11.06	5.65	1012.3	1125.7
30.55	11.07	5.65	1012.3	1125.4
30.56	11.07	5.65	1012.4	1126.2
30.57	11.05	5.65	1012.3	1125.9
30.58	11.06	5.65	1012.4	1126.0
30.59	11.06	5.65	1012.1	1125.3
30.6	11.07	5.65	1012.1	1125.7
30.61	11.05	5.64	1011.9	1125.7
30.62	11.07	5.65	1012.0	1125.7
30.63	11.05	5.64	1012.0	1125.2
30.64	11.07	5.64	1012.1	1124.9
30.65	11.06	5.64	1011.9	1125.6
30.66	11.07	5.64	1012.1	1126.0
30.67	11.06	5.64	1011.7	1125.9
30.68	11.06	5.64	1011.8	1124.9
30.69	11.05	5.64	1011.7	1125.6
30.7	11.05	5.64	1011.8	1125.5
30.71	11.06	5.64	1011.8	1125.3
30.72	11.06	5.64	1011.9	1125.1
30.73	11.05	5.64	1011.8	1125.6
30.74	11.06	5.64	1011.8	1125.6
30.75	11.05	5.64	1011.5	1125.4
30.76	11.06	5.64	1011.6	1125.2
30.77	11.06	5.64	1011.7	1125.0
30.78	11.06	5.64	1011.7	1125.3
30.79	11.06	5.64	1011.5	1125.1
30.8	11.05	5.64	1011.5	1126.0
30.81	11.06	5.64	1011.7	1124.8
30.82	11.06	5.64	1011.5	1125.2
30.83	11.06	5.64	1011.6	1125.0
30.84	11.07	5.64	1011.3	1125.1
30.85	11.06	5.64	1011.4	1124.5
30.86	11.05	5.64	1011.5	1124.8
30.87	11.06	5.63	1011.4	1125.2
30.88	11.05	5.64	1011.5	1125.2
30.89	11.07	5.64	1011.3	1124.9
30.9	11.06	5.64	1011.5	1125.0
30.91	11.06	5.64	1011.1	1125.0
30.92	11.05	5.64	1011.5	1124.7
30.93	11.05	5.63	1011.3	1124.6
30.94	11.04	5.63	1011.3	1124.4
30.95	11.07	5.64	1011.5	1124.8
30.96	11.06	5.64	1011.4	1124.5
30.97	11.06	5.63	1011.1	1124.7
30.98	11.06	5.63	1011.2	1124.4
30.99	11.07	5.63	1011.2	1124.3
31.0	11.06	5.63	1011.3	1124.7
31.01	11.06	5.63	1011.0	1124.4
31.02	11.06	5.63	1011.2	1124.4
31.03	11.07	5.64	1010.8	1124.6
31.04	11.06	5.63	1011.0	1124.9
31.05	11.06	5.63	1011.2	1124.4
31.06	11.06	5.63	1011.3	1124.4
31.07	11.06	5.63	1011.0	1124.0
31.08	11.06	5.63	1011.2	1124.0
31.09	11.05	5.63	1010.8	1124.3
31.1	11.06	5.63	1011.3	1124.3
31.11	11.06	5.63	1011.0	1123.4
31.12	11.06	5.63	1011.3	1124.7
31.13	11.05	5.63	1011.0	1124.6
31.14	11.06	5.63	1010.9	1124.5
31.15	11.05	5.63	1010.9	1124.1
31.16	11.06	5.63	1011.1	1124.0
31.17	11.05	5.62	1010.7	1123.9
31.18	11.06	5.63	1010.9	1124.1
31.19	11.06	5.63	1010.9	1123.7
31.2	11.06	5.63	1010.7	1123.1
31.21	11.06	5.63	1010.9	1123.6
31.22	11.06	5.63	1010.8	1123.8
31.23	11.05	5.63	1010.8	1123.8
31.24	11.06	5.63	1010.8	1124.0
31.25	11.05	5.62	1010.8	1123.7
31.26	11.06	5.63	1010.7	1124.2
31.27	11.05	5.62	1010.7	1123.7
31.28	11.06	5.63	1010.7	1123.2
31.29	11.06	5.62	1011.0	1124.0
31.3	11.08	5.63	1010.7	1123.5
31.31	11.05	5.62	1010.5	1123.6
31.32	11.06	5.62	1010.7	1123.7
31.33	11.05	5.62	1010.2	1123.4
31.34	11.06	5.62	1010.5	1123.6
31.35	11.07	5.62	1010.6	1123.3
31.36	11.07	5.63	1010.6	1123.8
31.37	11.06	5.62	1010.4	1122.6
31.38	11.06	5.62	1010.5	1124.0
31.39	11.06	5.62	1010.1	1123.7
31.4	11.06	5.62	1010.4	1123.6
31.41	11.05	5.62	1010.4	1123.4
31.42	11.06	5.62	1010.6	1124.2
31.43	11.06	5.62	1010.4	1123.7
31.44	11.07	5.62	1010.4	1123.2
31.45	11.06	5.62	1010.2	1123.3
31.46	11.05	5.62	1010.3	1123.0
31.47	11.06	5.62	1010.2	1123.6
31.48	11.04	5.61	1010.3	1123.4
31.49	11.06	5.62	1010.1	1123.2
31.5	11.06	5.62	1010.1	1123.0
31.51	11.06	5.62	1010.2	1123.4
31.52	11.06	5.62	1010.1	1123.4
31.53	11.06	5.62	1010.0	1123.0
31.54	11.06	5.62	1010.3	1122.5
31.55	11.05	5.61	1010.1	1123.4
31.56	11.05	5.61	1010.0	1123.6
31.57	11.06	5.62	1009.9	1122.9
31.58	11.06	5.62	1010.2	1123.1
31.59	11.06	5.62	1010.2	1122.7
31.6	11.07	5.62	1009.9	1122.9
31.61	11.07	5.62	1009.9	1123.0
31.62	11.05	5.61	1010.0	1123.0
31.63	11.06	5.61	1010.0	1122.1
31.64	11.06	5.61	1010.0	1123.5
31.65	11.06	5.61	1010.1	1122.8
31.66	11.05	5.61	1010.2	1123.0
31.67	11.07	5.62	1010.0	1122.5
31.68	11.05	5.61	1010.0	1122.8
31.69	11.05	5.61	1010.0	1122.9
31.7	11.05	5.61	1010.1	1122.5
31.71	11.06	5.61	1009.8	1122.0
31.72	11.05	5.61	1010.0	1121.8
31.73	11.05	5.61	1009.7	1122.8
31.74	11.05	5.61	1010.1	1122.4
31.75	11.06	5.61	1010.0	1122.7
31.76	11.05	5.61	1010.1	1122.5
31.77	11.06	5.61	1009.8	1122.8
31.78	11.07	5.62	1009.8	1122.7
31.79	11.05	5.6	1009.8	1122.8
31.8	11.06	5.61	1009.8	1123.0
31.81	11.06	5.61	1010.0	1122.5
31.82	11.06	5.61	1009.8	1122.6
31.83	11.06	5.61	1009.8	1122.6
31.84	11.07	5.61	1009.6	1122.6
31.85	11.07	5.61	1009.6	1122.3
31.86	11.06	5.61	1009.9	1123.3
31.87	11.07	5.61	1009.8	1122.5
31.88	11.06	5.61	1009.9	1122.4
31.89	11.05	5.61	1009.8	1122.2
31.9	11.07	5.61	1009.8	1122.6
31.91	11.05	5.61	1009.9	1122.5
31.92	11.06	5.6	1010.2	1122.5
31.93	11.06	5.61	1009.8	1122.3
31.94	11.07	5.61	1009.8	1121.9
31.95	11.06	5.61	1009.8	1122.4
31.96	11.06	5.61	1009.7	1122.3
31.97	11.07	5.61	1009.7	1122.1
31.98	11.07	5.61	1009.6	1121.3
31.99	11.06	5.61	1009.5	1122.2
32.0	11.06	5.6	1009.7	1122.1
32.01	11.05	5.6	1009.5	1122.1
32.02	11.05	5.6	1009.6	1121.8
32.03	11.06	5.61	1009.5	1122.2
32.04	11.06	5.6	1009.6	1122.2
32.05	11.06	5.6	1009.6	1121.3
32.06	11.08	5.61	1009.5	1121.5
32.07	11.06	5.6	1009.3	1121.8
32.08	11.06	5.6	1009.6	1122.3
32.09	11.06	5.6	1009.5	1122.5
32.1	11.06	5.6	1009.6	1121.9
32.11	11.06	5.6	1009.2	1121.2
32.12	11.07	5.61	1009.3	1122.7
32.13	11.06	5.6	1009.2	1121.6
32.14	11.07	5.6	1009.4	1122.3
32.15	11.06	5.6	1009.2	1121.2
32.16	11.06	5.6	1009.2	1121.9
32.17	11.07	5.6	1009.1	1121.8
32.18	11.05	5.6	1009.5	1122.4
32.19	11.07	5.6	1009.5	1121.8
32.2	11.06	5.6	1008.9	1121.5
32.21	11.06	5.6	1008.9	1121.8
32.22	11.06	5.6	1009.2	1121.4
32.23	11.06	5.6	1009.4	1121.2
32.24	11.06	5.6	1009.2	1121.3
32.25	11.05	5.6	1009.2	1121.1
32.26	11.05	5.6	1009.1	1120.9
32.27	11.07	5.6	1009.2	1120.8
32.28	11.06	5.6	1009.1	1120.8
32.29	11.06	5.6	1009.1	1121.1
32.3	11.07	5.6	1009.0	1121.0
32.31	11.05	5.59	1009.0	1120.6
32.32	11.07	5.6	1008.9	1120.1
32.33	11.06	5.6	1008.8	1120.4
32.34	11.04	5.59	1008.9	1120.5
32.35	11.06	5.59	1009.0	1120.8
32.36	11.05	5.59	1008.8	1121.1
32.37	11.06	5.6	1008.8	1121.0
32.38	11.06	5.59	1009.0	1120.8
32.39	11.07	5.6	1008.9	1120.8
32.4	11.07	5.6	1008.8	1121.2
32.41	11.06	5.59	1008.5	1120.4
32.42	11.06	5.59	1009.0	1120.9
32.43	11.06	5.59	1008.6	1121.2
32.44	11.05	5.59	1008.8	1121.2
32.45	11.06	5.59	1008.7	1120.8
32.46	11.06	5.59	1008.6	1121.1
32.47	11.06	5.59	1008.6	1121.0
32.48	11.07	5.6	1008.6	1121.0
32.49	11.06	5.59	1008.6	1120.6
32.5	11.07	5.6	1008.6	1120.1
32.51	11.06	5.59	1008.2	1121.1
32.52	11.05	5.59	1008.5	1120.5
32.53	11.05	5.59	1008.3	1121.2
32.54	11.06	5.59	1008.4	1120.5
32.55	11.07	5.59	1008.5	1120.5
32.56	11.07	5.59	1008.5	1120.4
32.57	11.06	5.59	1008.3	1120.2
32.58	11.06	5.59	1008.4	1119.7
32.59	11.07	5.59	1008.3	1120.0
32.6	11.06	5.59	1008.5	1120.4
32.61	11.06	5.59	1008.4	1120.2
32.62	11.06	5.59	1008.3	1120.3
32.63	11.05	5.59	1008.3	1119.9
32.64	11.07	5.59	1008.3	1120.3
32.65	11.06	5.59	1008.3	1119.9
32.66	11.07	5.59	1008.5	1119.6
32.67	11.05	5.59	1008.6	1118.7
32.68	11.07	5.59	1008.4	1119.8
32.69	11.07	5.59	1008.3	1119.3
32.7	11.06	5.58	1008.3	1120.0
32.71	11.06	5.59	1008.6	1119.4
32.72	11.07	5.59	1008.4	1119.5
32.73	11.06	5.58	1008.2	1119.3
32.74	11.07	5.59	1008.3	1119.3
32.75	11.06	5.58	1008.3	1119.1
32.76	11.06	5.58	1008.3	1119.0
32.77	11.06	5.59	1008.3	1119.0
32.78	11.06	5.58	1008.4	1119.1
32.79	11.06	5.59	1008.2	1119.7
32.8	11.06	5.58	1008.1	1119.4
32.81	11.07	5.59	1008.2	1119.6
32.82	11.06	5.58	1008.2	1119.3
32.83	11.06	5.59	1008.3	1119.1
32.84	11.07	5.59	1008.1	1119.1
32.85	11.06	5.58	1008.0	1118.7
32.86	11.06	5.58	1008.0	1119.4
32.87	11.07	5.58	1008.0	1119.1
32.88	11.07	5.59	1008.0	1119.4
32.89	11.06	5.58	1008.0	1118.3
32.9	11.06	5.58	1008.1	1119.1
32.91	11.06	5.58	1008.2	1118.9
32.92	11.06	5.58	1008.0	1119.1
32.93	11.06	5.58	1008.3	1118.7
32.94	11.06	5.58	1008.1	1119.0
32.95	11.06	5.58	1008.2	1119.3
32.96	11.06	5.58	1008.0	1119.2
32.97	11.06	5.58	1008.1	1119.1
32.98	11.05	5.58	1008.0	1118.6
32.99	11.06	5.58	1008.0	1119.4
33.0	11.06	5.58	1008.2	1118.7
33.01	11.05	5.58	1008.4	1118.7
33.02	11.07	5.58	1008.2	1118.5
33.03	11.06	5.58	1007.9	1119.2
33.04	11.05	5.58	1008.1	1118.5
33.05	11.06	5.58	1007.8	1118.7
33.06	11.05	5.57	1008.1	1118.1
33.07	11.07	5.58	1007.9	1118.6
33.08	11.06	5.58	1007.6	1118.7
33.09	11.06	5.57	1007.7	1118.6
33.1	11.05	5.58	1007.9	1118.7
33.11	11.06	5.57	1007.8	1118.4
33.12	11.05	5.58	1007.7	1118.7
33.13	11.06	5.58	1007.7	1118.4
33.14	11.06	5.57	1007.9	1118.4
33.15	11.06	5.58	1007.6	1118.2
33.16	11.05	5.57	1007.9	1118.5
33.17	11.07	5.57	1007.6	1118.3
33.18	11.05	5.57	1007.7	1118.4
33.19	11.06	5.57	1007.4	1118.2
33.2	11.06	5.57	1007.5	1118.5
33.21	11.06	5.58	1007.5	1118.4
33.22	11.06	5.57	1007.5	1118.4
33.23	11.07	5.58	1007.5	1118.2
33.24	11.06	5.57	1007.4	1117.5
33.25	11.05	5.57	1007.6	1117.5
33.26	11.06	5.57	1007.5	1117.8
33.27	11.07	5.58	1007.5	1117.9
33.28	11.07	5.58	1007.3	1117.4
33.29	11.06	5.57	1007.4	1117.9
33.3	11.06	5.57	1007.4	1118.3
33.31	11.07	5.57	1007.5	1117.4
33.32	11.06	5.57	1007.4	1117.3
33.33	11.07	5.57	1007.4	1117.6
33.34	11.06	5.57	1007.5	1117.9
33.35	11.06	5.57	1007.1	1117.6
33.36	11.07	5.57	1007.7	1117.6
33.37	11.07	5.57	1007.3	1117.0
33.38	11.06	5.57	1007.3	1117.8
33.39	11.06	5.57	1007.4	1117.4
33.4	11.07	5.57	1007.4	1118.0
33.41	11.06	5.57	1007.1	1117.2
33.42	11.06	5.57	1007.1	1117.7
33.43	11.07	5.57	1007.3	1117.6
33.44	11.07	5.57	1007.2	1117.1
33.45	11.06	5.57	1007.1	1116.9
33.46	11.06	5.57	1007.4	1117.5
33.47	11.05	5.56	1006.9	1116.9
33.48	11.06	5.56	1007.3	1117.0
33.49	11.05	5.57	1007.0	1117.1
33.5	11.07	5.57	1006.9	1116.9
33.51	11.06	5.57	1007.0	1117.3
33.52	11.07	5.57	1007.1	1116.8
33.53	11.06	5.57	1007.1	1116.8
33.54	11.06	5.57	1007.0	1116.8
33.55	11.05	5.56	1006.9	1117.0
33.56	11.06	5.57	1007.0	1116.9
33.57	11.06	5.57	1006.9	1116.7
33.58	11.06	5.56	1007.0	1116.6
33.59	11.06	5.57	1006.9	1116.7
33.6	11.05	5.56	1007.0	1116.6
33.61	11.06	5.56	1006.8	1116.4
33.62	11.05	5.56	1006.6	1116.2
33.63	11.06	5.56	1006.5	1116.6
33.64	11.06	5.56	1006.8	1116.4
33.65	11.07	5.57	1006.6	1116.7
33.66	11.07	5.56	1006.7	1116.7
33.67	11.06	5.56	1006.6	1115.6
33.68	11.05	5.56	1006.7	1116.9
33.69	11.07	5.56	1006.6	1116.0
33.7	11.05	5.56	1006.3	1116.4
33.71	11.06	5.56	1006.2	1115.8
33.72	11.05	5.56	1006.2	1116.1
33.73	11.05	5.56	1006.2	1116.2
33.74	11.06	5.56	1006.3	1116.2
33.75	11.07	5.56	1006.5	1115.8
33.76	11.06	5.56	1006.5	1116.0
33.77	11.06	5.56	1006.3	1116.4
33.78	11.06	5.56	1006.6	1115.8
33.79	11.05	5.56	1006.4	1115.7
33.8	11.05	5.56	1006.6	1115.6
33.81	11.06	5.56	1006.3	1115.7
33.82	11.06	5.56	1006.3	1115.8
33.83	11.06	5.56	1006.3	1115.1
33.84	11.06	5.56	1006.0	1115.6
33.85	11.06	5.56	1006.3	1116.0
33.86	11.05	5.55	1006.2	1115.9
33.87	11.06	5.56	1006.4	1115.4
33.88	11.05	5.56	1006.2	1115.0
33.89	11.05	5.55	1006.3	1115.6
33.9	11.06	5.56	1006.4	1116.1
33.91	11.06	5.56	1006.2	1116.0
33.92	11.05	5.56	1006.4	1115.3
33.93	11.07	5.56	1006.4	1115.2
33.94	11.06	5.56	1006.3	1115.5
33.95	11.06	5.56	1006.2	1115.4
33.96	11.06	5.56	1006.4	1115.8
33.97	11.05	5.55	1006.2	1115.0
33.98	11.06	5.56	1006.4	1115.3
33.99	11.06	5.56	1006.2	1115.0
34.0	11.06	5.56	1006.5	1115.0
34.01	11.06	5.56	1006.4	1114.5
34.02	11.06	5.55	1006.5	1115.6
34.03	11.06	5.56	1006.2	1115.6
34.04	11.06	5.55	1006.4	1115.2
34.05	11.06	5.55	1006.4	1115.1
34.06	11.06	5.56	1006.2	1115.3
34.07	11.06	5.55	1006.2	1115.6
34.08	11.07	5.56	1006.3	1114.8
34.09	11.06	5.55	1006.2	1115.2
34.1	11.07	5.56	1006.2	1114.3
34.11	11.06	5.56	1005.9	1115.0
34.12	11.07	5.55	1006.0	1114.9
34.13	11.06	5.55	1006.2	1114.4
34.14	11.06	5.55	1006.3	1114.6
34.15	11.06	5.55	1005.8	1115.0
34.16	11.07	5.55	1006.5	1115.5
34.17	11.06	5.55	1005.9	1114.9
34.18	11.07	5.56	1006.0	1115.0
34.19	11.06	5.55	1006.0	1114.7
34.2	11.07	5.55	1005.8	1115.1
34.21	11.06	5.55	1006.1	1114.9
34.22	11.05	5.55	1006.1	1115.1
34.23	11.06	5.55	1006.2	1114.7
34.24	11.06	5.55	1005.8	1115.2
34.25	11.05	5.55	1006.0	1114.4
34.26	11.07	5.55	1006.1	1114.4
34.27	11.05	5.54	1006.0	1113.8
34.28	11.05	5.55	1006.1	1114.8
34.29	11.06	5.55	1006.1	1114.6
34.3	11.05	5.55	1006.0	1114.7
34.31	11.06	5.55	1006.1	1114.7
34.32	11.05	5.55	1006.0	1114.4
34.33	11.06	5.55	1006.0	1114.4
34.34	11.06	5.55	1006.1	1114.4
34.35	11.06	5.55	1006.0	1114.4
34.36	11.07	5.55	1006.1	1114.3
34.37	11.07	5.55	1006.1	1114.3
34.38	11.05	5.54	1005.9	1114.6
34.39	11.07	5.55	1005.9	1114.3
34.4	11.07	5.55	1006.2	1114.8
34.41	11.07	5.55	1006.0	1114.5
34.42	11.06	5.54	1006.1	1114.2
34.43	11.07	5.55	1005.9	1114.1
34.44	11.05	5.54	1006.2	1114.0
34.45	11.06	5.54	1005.8	1114.4
34.46	11.06	5.54	1005.8	1114.6
34.47	11.07	5.55	1005.7	1114.3
34.48	11.06	5.55	1005.9	1115.0
34.49	11.07	5.55	1006.0	1114.0
34.5	11.06	5.55	1005.7	1115.0
34.51	11.06	5.54	1005.9	1114.5
34.52	11.07	5.55	1005.7	1114.7
34.53	11.05	5.54	1005.9	1114.1
34.54	11.05	5.54	1005.7	1114.5
34.55	11.07	5.55	1005.7	1114.6
34.56	11.05	5.54	1005.5	1114.3
34.57	11.06	5.54	1005.7	1114.9
34.58	11.06	5.54	1005.7	1114.1
34.59	11.06	5.54	1005.7	1114.1
34.6	11.05	5.54	1005.5	1113.9
34.61	11.07	5.54	1005.9	1114.0
34.62	11.06	5.54	1005.9	1113.2
34.63	11.07	5.54	1005.7	1113.8
34.64	11.05	5.54	1005.8	1114.0
34.65	11.06	5.54	1005.6	1113.8
34.66	11.06	5.54	1005.7	1113.5
34.67	11.06	5.54	1005.6	1113.7
34.68	11.07	5.54	1005.4	1113.5
34.69	11.06	5.54	1005.8	1113.4
34.7	11.07	5.54	1005.7	1113.5
34.71	11.07	5.54	1005.6	1113.0
34.72	11.05	5.53	1005.4	1113.5
34.73	11.06	5.54	1005.3	1113.4
34.74	11.06	5.53	1005.6	1113.6
34.75	11.07	5.54	1005.5	1113.3
34.76	11.07	5.54	1005.6	1113.7
34.77	11.06	5.54	1005.4	1113.5
34.78	11.06	5.54	1005.3	1113.6
34.79	11.06	5.54	1005.6	1113.0
34.8	11.06	5.53	1005.5	1113.5
34.81	11.06	5.54	1005.5	1113.0
34.82	11.06	5.54	1005.4	1113.4
34.83	11.06	5.54	1005.3	1112.9
34.84	11.06	5.54	1005.1	1113.2
34.85	11.06	5.54	1005.5	1113.0
34.86	11.06	5.53	1005.2	1113.2
34.87	11.06	5.54	1005.3	1113.2
34.88	11.06	5.54	1005.6	1112.9
34.89	11.05	5.53	1005.1	1113.7
34.9	11.07	5.54	1005.4	1113.1
34.91	11.06	5.54	1005.1	1113.5
34.92	11.07	5.54	1005.4	1113.2
34.93	11.06	5.53	1005.0	1113.3
34.94	11.07	5.54	1005.2	1113.4
34.95	11.06	5.53	1005.2	1113.2
34.96	11.06	5.53	1005.4	1113.0
34.97	11.05	5.53	1005.1	1112.9
34.98	11.06	5.53	1005.1	1113.0
34.99	11.06	5.53	1005.1	1112.8
35.0	11.06	5.53	1005.2	1113.4
35.01	11.07	5.54	1005.3	1112.4
35.02	11.06	5.53	1005.4	1113.1
35.03	11.06	5.53	1005.4	1112.5
35.04	11.07	5.54	1005.2	1113.0
35.05	11.06	5.53	1005.2	1112.0
35.06	11.05	5.53	1005.2	1112.5
35.07	11.06	5.53	1005.2	1112.3
35.08	11.05	5.53	1005.2	1112.7
35.09	11.07	5.53	1005.0	1112.1
35.1	11.06	5.53	1005.0	1111.8
35.11	11.06	5.53	1004.9	1112.9
35.12	11.06	5.53	1005.1	1112.1
35.13	11.07	5.53	1005.0	1112.1
35.14	11.05	5.53	1004.9	1111.9
35.15	11.06	5.53	1004.8	1112.6
35.16	11.06	5.53	1005.1	1112.6
35.17	11.07	5.53	1004.9	1112.6
35.18	11.07	5.53	1004.6	1112.1
35.19	11.07	5.54	1004.9	1112.3
35.2	11.06	5.53	1004.8	1112.4
35.21	11.06	5.53	1004.8	1112.3
35.22	11.06	5.53	1004.9	1112.1
35.23	11.06	5.53	1004.7	1112.6
35.24	11.06	5.53	1005.1	1112.6
35.25	11.07	5.53	1004.7	1112.4
35.26	11.06	5.53	1004.7	1112.1
35.27	11.06	5.53	1004.7	1111.6
35.28	11.06	5.53	1004.7	1112.3
35.29	11.06	5.53	1004.6	1112.1
35.3	11.05	5.53	1004.5	1112.1
35.31	11.06	5.53	1004.4	1111.6
35.32	11.05	5.52	1004.8	1112.1
35.33	11.05	5.53	1004.5	1111.8
35.34	11.05	5.53	1004.5	1112.0
35.35	11.06	5.53	1004.5	1111.8
35.36	11.05	5.52	1004.6	1112.1
35.37	11.06	5.52	1004.6	1112.1
35.38	11.06	5.53	1004.4	1111.7
35.39	11.06	5.52	1004.5	1111.5
35.4	11.06	5.53	1004.5	1111.6
35.41	11.06	5.52	1004.5	1111.8
35.42	11.05	5.52	1004.7	1111.8
35.43	11.06	5.53	1004.6	1111.3
35.44	11.07	5.53	1004.6	1111.3
35.45	11.06	5.53	1004.4	1111.7
35.46	11.07	5.53	1004.7	1111.9
35.47	11.06	5.52	1004.4	1111.9
35.48	11.06	5.52	1004.7	1111.4
35.49	11.05	5.52	1004.5	1111.4
35.5	11.06	5.52	1004.6	1111.6
35.51	11.05	5.52	1004.2	1111.3
35.52	11.06	5.52	1004.5	1111.8
35.53	11.06	5.53	1004.5	1111.0
35.54	11.06	5.52	1004.5	1111.3
35.55	11.07	5.53	1004.2	1111.4
35.56	11.06	5.52	1004.3	1111.8
35.57	11.05	5.52	1004.4	1111.1
35.58	11.06	5.52	1004.2	1111.5
35.59	11.06	5.52	1004.2	1111.1
35.6	11.06	5.52	1004.2	1110.9
35.61	11.07	5.53	1004.3	1110.4
35.62	11.06	5.52	1004.2	1110.1
35.63	11.06	5.52	1004.6	1111.4
35.64	11.07	5.52	1004.2	1111.4
35.65	11.06	5.52	1004.4	1110.9
35.66	11.07	5.52	1004.4	1110.3
35.67	11.06	5.52	1004.2	1111.1
35.68	11.05	5.52	1004.3	1111.2
35.69	11.07	5.52	1004.2	1111.0
35.7	11.07	5.52	1004.4	1110.7
35.71	11.06	5.52	1004.3	1111.3
35.72	11.05	5.52	1004.2	1111.4
35.73	11.06	5.52	1004.3	1111.4
35.74	11.07	5.52	1004.3	1110.9
35.75	11.05	5.52	1004.4	1110.5
35.76	11.06	5.52	1004.4	1111.6
35.77	11.06	5.52	1004.3	1110.6
35.78	11.06	5.52	1004.2	1111.3
35.79	11.05	5.52	1004.3	1110.8
35.8	11.07	5.52	1004.1	1111.4
35.81	11.06	5.52	1004.3	1110.6
35.82	11.07	5.52	1004.1	1110.9
35.83	11.05	5.51	1004.0	1110.6
35.84	11.07	5.52	1004.1	1111.1
35.85	11.07	5.52	1003.7	1110.5
35.86	11.05	5.52	1003.9	1110.4
35.87	11.07	5.52	1004.5	1110.4
35.88	11.06	5.52	1004.1	1110.3
35.89	11.08	5.52	1004.1	1110.7
35.9	11.05	5.51	1004.2	1110.2
35.91	11.07	5.52	1004.0	1110.2
35.92	11.06	5.51	1004.1	1110.1
35.93	11.06	5.51	1004.2	1110.6
35.94	11.05	5.51	1004.1	1110.1
35.95	11.07	5.52	1004.0	1109.9
35.96	11.05	5.51	1004.1	1109.4
35.97	11.05	5.51	1004.0	1110.2
35.98	11.05	5.51	1004.0	1110.3
35.99	11.05	5.51	1004.0	1109.9
36.0	11.08	5.52	1004.0	1109.9
36.01	11.06	5.51	1004.0	1110.0
36.02	11.06	5.51	1004.0	1110.1
36.03	11.06	5.51	1004.0	1110.0
36.04	11.06	5.51	1003.9	1109.8
36.05	11.06	5.51	1004.0	1109.8
36.06	11.06	5.51	1003.9	1109.8
36.07	11.06	5.51	1004.0	1110.0
36.08	11.07	5.51	1003.8	1109.8
36.09	11.05	5.51	1003.9	1109.1
36.1	11.06	5.51	1003.8	1109.5
36.11	11.05	5.51	1003.9	1109.4
36.12	11.06	5.51	1003.7	1109.7
36.13	11.06	5.51	1003.9	1109.0
36.14	11.07	5.52	1003.9	1109.7
36.15	11.05	5.51	1003.8	1109.4
36.16	11.05	5.51	1004.0	1109.6
36.17	11.06	5.51	1003.6	1109.6
36.18	11.06	5.51	1003.5	1109.4
36.19	11.05	5.51	1003.7	1109.9
36.2	11.06	5.51	1003.8	1109.6
36.21	11.06	5.51	1003.8	1109.6
36.22	11.07	5.51	1003.7	1108.9
36.23	11.07	5.51	1003.8	1109.4
36.24	11.07	5.51	1003.6	1109.6
36.25	11.06	5.51	1003.6	1109.6
36.26	11.05	5.51	1003.8	1109.4
36.27	11.05	5.51	1003.9	1109.4
36.28	11.07	5.51	1003.6	1109.4
36.29	11.05	5.51	1003.7	1109.1
36.3	11.07	5.51	1003.5	1109.3
36.31	11.05	5.51	1003.4	1108.9
36.32	11.06	5.51	1003.6	1109.4
36.33	11.06	5.51	1003.6	1109.3
36.34	11.07	5.51	1003.6	1108.8
36.35	11.05	5.5	1003.6	1108.1
36.36	11.06	5.51	1003.5	1108.9
36.37	11.07	5.51	1003.6	1109.0
36.38	11.06	5.51	1003.5	1108.9
36.39	11.05	5.5	1003.2	1109.0
36.4	11.06	5.51	1003.5	1108.5
36.41	11.06	5.51	1003.1	1109.2
36.42	11.06	5.51	1003.4	1109.5
36.43	11.07	5.51	1003.3	1109.4
36.44	11.06	5.51	1003.4	1108.6
36.45	11.06	5.51	1003.4	1108.9
36.46	11.05	5.51	1003.4	1108.8
36.47	11.07	5.51	1003.6	1109.1
36.48	11.06	5.51	1003.3	1108.5
36.49	11.07	5.51	1003.1	1108.9
36.5	11.06	5.51	1003.3	1108.4
36.51	11.07	5.51	1003.3	1108.5
36.52	11.05	5.5	1003.0	1108.2
36.53	11.05	5.5	1003.3	1108.3
36.54	11.06	5.51	1003.4	1108.6
36.55	11.07	5.51	1003.1	1108.6
36.56	11.05	5.5	1002.9	1108.7
36.57	11.07	5.51	1002.9	1107.8
36.58	11.05	5.5	1003.0	1108.5
36.59	11.07	5.51	1003.0	1108.3
36.6	11.05	5.5	1002.9	1108.6
36.61	11.06	5.5	1002.9	1107.7
36.62	11.06	5.5	1002.8	1108.6
36.63	11.07	5.51	1002.9	1108.8
36.64	11.06	5.5	1003.0	1108.4
36.65	11.07	5.5	1003.0	1108.2
36.66	11.05	5.5	1003.2	1108.0
36.67	11.07	5.5	1002.9	1108.7
36.68	11.05	5.5	1003.1	1108.0
36.69	11.06	5.5	1002.6	1108.0
36.7	11.05	5.5	1002.7	1107.6
36.71	11.06	5.5	1002.9	1107.9
36.72	11.07	5.5	1002.7	1107.7
36.73	11.06	5.5	1003.1	1108.1
36.74	11.07	5.5	1003.0	1107.6
36.75	11.07	5.5	1002.9	1108.0
36.76	11.05	5.5	1002.9	1107.6
36.77	11.05	5.5	1002.8	1107.5
36.78	11.06	5.5	1002.6	1107.5
36.79	11.06	5.5	1002.7	1107.6
36.8	11.07	5.5	1002.8	1107.6
36.81	11.05	5.5	1002.7	1107.7
36.82	11.07	5.5	1003.0	1107.5
36.83	11.06	5.5	1002.8	1107.1
36.84	11.05	5.5	1002.8	1107.6
36.85	11.06	5.5	1002.6	1107.7
36.86	11.06	5.5	1002.8	1107.3
36.87	11.05	5.5	1002.7	1107.6
36.88	11.06	5.5	1002.4	1107.6
36.89	11.05	5.5	1002.5	1107.6
36.9	11.06	5.5	1002.6	1107.2
36.91	11.05	5.49	1002.4	1107.4
36.92	11.06	5.49	1002.4	1107.3
36.93	11.06	5.5	1002.4	1107.8
36.94	11.07	5.5	1002.6	1107.6
36.95	11.06	5.5	1002.4	1107.5
36.96	11.07	5.5	1002.6	1106.9
36.97	11.06	5.5	1002.4	1107.3
36.98	11.07	5.5	1002.6	1107.4
36.99	11.06	5.5	1002.4	1107.4
37.0	11.06	5.49	1002.4	1106.9
37.01	11.06	5.49	1002.6	1107.1
37.02	11.07	5.5	1002.5	1106.8
37.03	11.06	5.5	1002.3	1107.3
37.04	11.06	5.5	1002.3	1107.0
37.05	11.06	5.5	1002.1	1106.3
37.06	11.06	5.5	1002.4	1107.5
37.07	11.06	5.5	1002.3	1107.0
37.08	11.06	5.49	1002.3	1107.3
37.09	11.06	5.49	1002.3	1106.5
37.1	11.06	5.49	1002.3	1107.0
37.11	11.06	5.49	1002.2	1106.4
37.12	11.07	5.5	1002.4	1106.2
37.13	11.06	5.49	1002.2	1106.1
37.14	11.06	5.49	1002.2	1106.7
37.15	11.06	5.49	1002.2	1107.0
37.16	11.06	5.5	1002.2	1106.5
37.17	11.06	5.49	1002.0	1106.2
37.18	11.06	5.49	1002.0	1106.1
37.19	11.08	5.5	1002.0	1106.3
37.2	11.06	5.49	1002.1	1106.2
37.21	11.07	5.49	1002.0	1105.7
37.22	11.06	5.5	1002.0	1105.8
37.23	11.06	5.49	1002.0	1106.5
37.24	11.07	5.5	1002.0	1106.2
37.25	11.07	5.49	1001.9	1105.8
37.26	11.05	5.49	1002.0	1105.4
37.27	11.07	5.49	1002.2	1106.4
37.28	11.05	5.49	1002.0	1106.5
37.29	11.06	5.49	1002.0	1106.5
37.3	11.05	5.49	1002.0	1105.9
37.31	11.06	5.49	1002.2	1105.6
37.32	11.06	5.49	1002.0	1106.2
37.33	11.05	5.49	1001.7	1105.9
37.34	11.06	5.49	1001.9	1106.2
37.35	11.06	5.49	1001.8	1105.3
37.36	11.06	5.49	1002.1	1106.0
37.37	11.07	5.49	1001.7	1105.6
37.38	11.06	5.49	1001.9	1106.2
37.39	11.06	5.49	1001.6	1105.3
37.4	11.07	5.49	1001.4	1105.7
37.41	11.06	5.49	1001.8	1105.8
37.42	11.06	5.49	1001.7	1106.1
37.43	11.06	5.49	1001.6	1105.6
37.44	11.07	5.49	1001.7	1106.1
37.45	11.06	5.49	1001.5	1106.0
37.46	11.07	5.49	1001.7	1105.9
37.47	11.05	5.48	1001.9	1105.9
37.48	11.06	5.49	1001.6	1105.6
37.49	11.05	5.48	1001.7	1105.4
37.5	11.06	5.49	1001.5	1105.5
37.51	11.05	5.49	1001.7	1104.8
37.52	11.07	5.49	1002.2	1104.3
37.53	11.07	5.49	1001.6	1105.4
37.54	11.08	5.49	1001.2	1105.2
37.55	11.05	5.49	1001.3	1105.0
37.56	11.05	5.49	1001.4	1104.5
37.57	11.07	5.49	1001.3	1105.6
37.58	11.06	5.49	1001.5	1105.2
37.59	11.05	5.48	1001.3	1105.0
37.6	11.07	5.49	1001.3	1104.9
37.61	11.06	5.49	1001.3	1104.7
37.62	11.06	5.49	1001.6	1105.4
37.63	11.05	5.48	1001.6	1104.7
37.64	11.06	5.49	1001.2	1105.6
37.65	11.07	5.49	1001.4	1104.9
37.66	11.05	5.48	1001.4	1105.0
37.67	11.07	5.49	1001.2	1105.3
37.68	11.06	5.49	1001.3	1105.1
37.69	11.06	5.49	1001.4	1104.8
37.7	11.06	5.49	1001.4	1105.1
37.71	11.06	5.49	1001.5	1105.3
37.72	11.06	5.48	1001.4	1105.2
37.73	11.07	5.49	1001.3	1104.7
37.74	11.06	5.48	1001.1	1104.7
37.75	11.06	5.49	1001.2	1105.8
37.76	11.06	5.48	1001.3	1105.5
37.77	11.05	5.48	1001.1	1104.6
37.78	11.06	5.48	1001.1	1104.5
37.79	11.07	5.49	1001.1	1105.1
37.8	11.07	5.49	1001.2	1105.1
37.81	11.07	5.49	1001.2	1104.5
37.82	11.06	5.48	1001.0	1104.6
37.83	11.07	5.48	1001.0	1104.5
37.84	11.05	5.48	1001.0	1105.0
37.85	11.05	5.48	1001.2	1104.7
37.86	11.07	5.49	1001.0	1104.2
37.87	11.06	5.48	1001.1	1104.2
37.88	11.06	5.48	1001.0	1104.7
37.89	11.06	5.48	1000.9	1104.5
37.9	11.05	5.48	1000.9	1104.7
37.91	11.07	5.48	1001.2	1104.6
37.92	11.06	5.48	1001.1	1104.8
37.93	11.05	5.48	1001.0	1104.2
37.94	11.06	5.48	1001.0	1104.5
37.95	11.06	5.48	1001.3	1104.2
37.96	11.06	5.48	1001.0	1104.0
37.97	11.08	5.49	1001.1	1104.2
37.98	11.05	5.48	1001.1	1104.3
37.99	11.06	5.48	1001.0	1104.6
38.0	11.06	5.48	1000.8	1103.9
38.01	11.06	5.48	1001.0	1104.5
38.02	11.06	5.48	1000.8	1104.7
38.03	11.06	5.48	1000.8	1103.6
38.04	11.05	5.48	1000.6	1103.7
38.05	11.07	5.48	1000.7	1104.7
38.06	11.06	5.48	1000.6	1104.5
38.07	11.05	5.48	1000.9	1104.6
38.08	11.05	5.48	1000.7	1104.0
38.09	11.07	5.48	1000.9	1103.7
38.1	11.05	5.48	1000.8	1104.0
38.11	11.06	5.47	1000.7	1103.6
38.12	11.06	5.48	1000.6	1104.0
38.13	11.05	5.47	1000.8	1103.9
38.14	11.06	5.48	1001.0	1104.2
38.15	11.07	5.48	1000.8	1103.6
38.16	11.05	5.47	1000.7	1104.3
38.17	11.07	5.48	1000.8	1103.3
38.18	11.06	5.48	1000.8	1103.7
38.19	11.05	5.47	1000.7	1103.6
38.2	11.07	5.48	1000.5	1103.6
38.21	11.06	5.48	1000.6	1103.2
38.22	11.07	5.48	1000.5	1103.0
38.23	11.05	5.47	1000.4	1103.7
38.24	11.06	5.47	1000.5	1102.9
38.25	11.06	5.48	1000.4	1102.9
38.26	11.06	5.48	1000.6	1102.8
38.27	11.06	5.48	1000.5	1103.6
38.28	11.07	5.48	1000.6	1102.8
38.29	11.05	5.47	1000.5	1102.7
38.3	11.06	5.48	1000.5	1102.5
38.31	11.07	5.48	1000.5	1103.1
38.32	11.06	5.47	1000.5	1103.3
38.33	11.05	5.47	1000.4	1102.8
38.34	11.05	5.47	1000.5	1102.5
38.35	11.06	5.48	1000.5	1102.9
38.36	11.06	5.48	1000.4	1103.1
38.37	11.05	5.47	1000.1	1102.8
38.38	11.05	5.47	1000.2	1103.5
38.39	11.05	5.47	1000.2	1102.5
38.4	11.07	5.48	1000.3	1102.9
38.41	11.07	5.48	1000.3	1102.8
38.42	11.06	5.47	1000.1	1102.4
38.43	11.06	5.47	1000.3	1102.3
38.44	11.06	5.47	1000.3	1102.7
38.45	11.06	5.47	1000.1	1102.9
38.46	11.07	5.48	1000.2	1102.5
38.47	11.07	5.48	1000.1	1102.4
38.48	11.08	5.48	1000.2	1102.3
38.49	11.05	5.47	1000.3	1102.6
38.5	11.05	5.47	1000.0	1102.5
38.51	11.06	5.47	1000.2	1102.8
38.52	11.08	5.48	1000.1	1102.1
38.53	11.07	5.48	1000.0	1102.7
38.54	11.06	5.47	1000.2	1102.7
38.55	11.06	5.47	999.9	1102.9
38.56	11.06	5.47	1000.1	1102.0
38.57	11.06	5.47	1000.0	1102.6
38.58	11.05	5.47	1000.0	1102.1
38.59	11.06	5.47	1000.0	1102.0
38.6	11.06	5.47	999.9	1102.0
38.61	11.07	5.47	1000.1	1102.3
38.62	11.06	5.47	1000.1	1102.7
38.63	11.06	5.47	999.9	1101.9
38.64	11.06	5.47	1000.0	1102.4
38.65	11.06	5.47	999.9	1101.8
38.66	11.06	5.47	1000.0	1102.5
38.67	11.06	5.47	999.7	1102.5
38.68	11.05	5.47	999.9	1102.4
38.69	11.07	5.47	999.7	1101.9
38.7	11.06	5.47	999.9	1102.3
38.71	11.05	5.47	1000.0	1102.3
38.72	11.05	5.47	1000.0	1101.6
38.73	11.06	5.47	1000.0	1101.5
38.74	11.06	5.47	999.8	1102.2
38.75	11.06	5.47	999.8	1101.8
38.76	11.05	5.47	999.8	1102.0
38.77	11.07	5.47	999.6	1101.4
38.78	11.06	5.47	999.7	1101.7
38.79	11.06	5.47	999.8	1102.3
38.8	11.05	5.47	999.7	1101.6
38.81	11.06	5.47	999.7	1101.5
38.82	11.07	5.47	999.6	1101.1
38.83	11.07	5.47	999.5	1101.7
38.84	11.06	5.47	999.6	1101.2
38.85	11.05	5.46	999.7	1101.7
38.86	11.05	5.46	999.8	1101.4
38.87	11.06	5.47	999.7	1101.6
38.88	11.07	5.47	999.6	1101.7
38.89	11.06	5.47	999.6	1101.5
38.9	11.06	5.47	999.5	1101.1
38.91	11.05	5.46	999.4	1101.5
38.92	11.06	5.47	999.7	1101.2
38.93	11.06	5.47	999.5	1101.6
38.94	11.07	5.47	999.5	1101.4
38.95	11.07	5.47	999.4	1100.5
38.96	11.06	5.46	999.4	1101.1
38.97	11.06	5.47	999.5	1100.8
38.98	11.07	5.47	999.4	1101.2
38.99	11.05	5.46	999.5	1100.4
39.0	11.06	5.47	999.4	1101.2
39.01	11.06	5.46	999.2	1101.2
39.02	11.06	5.46	999.3	1100.8
39.03	11.06	5.46	999.2	1100.3
39.04	11.06	5.46	999.2	1100.6
39.05	11.06	5.47	999.4	1101.0
39.06	11.06	5.46	999.5	1100.7
39.07	11.05	5.46	999.2	1100.9
39.08	11.06	5.46	999.3	1100.3
39.09	11.05	5.46	999.4	1100.4
39.1	11.05	5.46	999.1	1100.3
39.11	11.05	5.46	999.3	1100.7
39.12	11.06	5.47	999.2	1100.2
39.13	11.06	5.46	999.0	1100.4
39.14	11.05	5.46	999.2	1100.3
39.15	11.06	5.46	998.9	1100.5
39.16	11.06	5.46	999.0	1100.2
39.17	11.06	5.47	999.3	1100.4
39.18	11.06	5.46	998.9	1100.7
39.19	11.05	5.46	999.0	1100.7
39.2	11.07	5.47	999.1	1101.3
39.21	11.05	5.46	999.2	1100.3
39.22	11.06	5.46	999.2	1100.4
39.23	11.07	5.47	999.1	1100.5
39.24	11.06	5.46	999.0	1100.5
39.25	11.05	5.46	998.9	1099.8
39.26	11.06	5.46	999.0	1100.5
39.27	11.06	5.46	998.9	1100.2
39.28	11.06	5.46	999.2	1099.7
39.29	11.06	5.46	998.9	1099.2
39.3	11.08	5.47	998.8	1099.6
39.31	11.07	5.47	998.8	1099.8
39.32	11.05	5.46	999.0	1099.8
39.33	11.07	5.46	998.8	1099.7
39.34	11.07	5.47	998.8	1099.5
39.35	11.05	5.46	998.9	1099.4
39.36	11.06	5.46	998.7	1099.5
39.37	11.07	5.46	998.8	1099.2
39.38	11.05	5.46	998.6	1098.9
39.39	11.07	5.46	998.9	1100.2
39.4	11.06	5.46	998.8	1099.8
39.41	11.07	5.46	998.7	1099.5
39.42	11.07	5.46	998.8	1098.8
39.43	11.07	5.46	998.7	1099.4
39.44	11.06	5.46	998.6	1099.5
39.45	11.06	5.46	998.7	1099.3
39.46	11.05	5.46	998.5	1098.9
39.47	11.08	5.46	998.5	1099.1
39.48	11.05	5.46	998.4	1099.3
39.49	11.05	5.46	998.6	1098.9
39.5	11.05	5.45	998.5	1098.8
39.51	11.06	5.46	998.5	1098.5
39.52	11.06	5.46	998.6	1099.0
39.53	11.06	5.46	998.4	1099.2
39.54	11.05	5.46	998.3	1098.9
39.55	11.06	5.46	998.5	1098.6
39.56	11.05	5.46	998.5	1099.3
39.57	11.06	5.46	998.4	1099.2
39.58	11.07	5.46	998.2	1098.8
39.59	11.06	5.45	998.6	1098.8
39.6	11.05	5.45	998.4	1099.3
39.61	11.06	5.46	998.6	1099.0
39.62	11.07	5.46	998.3	1098.6
39.63	11.06	5.46	998.6	1098.6
39.64	11.05	5.45	998.5	1099.2
39.65	11.06	5.45	998.2	1098.9
39.66	11.06	5.45	998.3	1099.2
39.67	11.06	5.46	998.1	1098.9
39.68	11.07	5.46	998.1	1098.0
39.69	11.06	5.46	998.2	1099.1
39.7	11.07	5.46	998.0	1098.9
39.71	11.06	5.46	998.0	1098.9
39.72	11.08	5.46	998.4	1098.6
39.73	11.06	5.46	998.3	1099.2
39.74	11.06	5.45	998.3	1099.2
39.75	11.07	5.46	998.4	1099.3
39.76	11.07	5.46	998.2	1099.8
39.77	11.06	5.45	998.1	1098.6
39.78	11.07	5.45	998.2	1099.1
39.79	11.04	5.45	998.2	1098.9
39.8	11.07	5.45	998.0	1098.9
39.81	11.05	5.45	998.2	1097.9
39.82	11.06	5.45	998.4	1098.5
39.83	11.07	5.46	998.4	1098.7
39.84	11.07	5.46	998.5	1098.5
39.85	11.05	5.45	998.1	1097.8
39.86	11.06	5.45	998.1	1098.0
39.87	11.06	5.46	998.2	1098.9
39.88	11.07	5.46	998.2	1098.4
39.89	11.05	5.45	998.2	1098.2
39.9	11.06	5.45	998.3	1098.2
39.91	11.06	5.45	998.0	1097.9
39.92	11.06	5.45	998.1	1098.0
39.93	11.07	5.46	998.2	1098.5
39.94	11.06	5.45	998.0	1097.8
39.95	11.08	5.46	998.2	1098.4
39.96	11.06	5.45	998.1	1098.2
39.97	11.06	5.45	998.3	1098.2
39.98	11.07	5.45	998.2	1098.1
39.99	11.07	5.46	998.1	1097.7
40.0	11.06	5.45	998.1	1097.8
40.01	11.07	5.45	998.0	1098.2
40.02	11.06	5.45	998.2	1098.2
40.03	11.07	5.45	998.0	1097.8
40.04	11.06	5.45	997.6	1097.9
40.05	11.07	5.45	997.7	1098.2
40.06	11.06	5.45	997.9	1098.4
40.07	11.05	5.45	998.0	1097.4
40.08	11.06	5.45	997.7	1097.9
40.09	11.07	5.45	998.0	1098.2
40.1	11.06	5.45	998.0	1097.8
40.11	11.07	5.45	997.9	1097.8
40.12	11.05	5.45	997.8	1098.2
40.13	11.07	5.45	997.8	1098.3
40.14	11.05	5.45	997.6	1098.0
40.15	11.07	5.45	997.6	1098.2
40.16	11.07	5.45	997.6	1097.6
40.17	11.06	5.45	997.8	1098.4
40.18	11.05	5.45	997.6	1097.7
40.19	11.07	5.45	997.5	1097.9
40.2	11.05	5.44	997.7	1097.2
40.21	11.05	5.44	997.5	1097.8
40.22	11.06	5.45	997.6	1098.2
40.23	11.06	5.44	997.5	1097.7
40.24	11.05	5.45	997.6	1097.5
40.25	11.07	5.45	997.7	1097.8
40.26	11.05	5.45	997.3	1098.0
40.27	11.07	5.45	997.5	1097.6
40.28	11.05	5.44	997.4	1098.0
40.29	11.05	5.45	997.2	1097.4
40.3	11.07	5.45	997.3	1098.2
40.31	11.05	5.44	997.5	1098.1
40.32	11.06	5.44	997.3	1098.1
40.33	11.07	5.45	997.2	1097.7
40.34	11.05	5.44	997.3	1097.6
40.35	11.06	5.44	997.7	1097.9
40.36	11.06	5.44	997.4	1098.0
40.37	11.07	5.45	997.4	1096.7
40.38	11.06	5.45	997.2	1097.2
40.39	11.05	5.44	997.2	1097.9
40.4	11.07	5.45	997.6	1097.8
40.41	11.06	5.45	997.4	1097.9
40.42	11.06	5.44	997.5	1096.4
40.43	11.07	5.45	997.4	1097.7
40.44	11.07	5.45	997.4	1097.4
40.45	11.07	5.45	997.4	1097.6
40.46	11.06	5.44	997.3	1097.0
40.47	11.07	5.45	997.3	1097.6
40.48	11.07	5.45	997.2	1097.5
40.49	11.06	5.44	997.0	1097.0
40.5	11.07	5.45	997.3	1096.2
40.51	11.07	5.45	997.1	1096.9
40.52	11.07	5.45	997.2	1097.8
40.53	11.07	5.45	997.1	1096.6
40.54	11.06	5.44	997.3	1097.0
40.55	11.06	5.45	996.8	1096.2
40.56	11.07	5.44	997.1	1096.6
40.57	11.05	5.44	997.2	1096.6
40.58	11.07	5.45	997.0	1096.6
40.59	11.05	5.44	996.9	1096.0
40.6	11.05	5.44	996.8	1096.3
40.61	11.06	5.44	997.2	1095.9
40.62	11.05	5.44	996.8	1095.8
40.63	11.06	5.45	997.2	1095.6
40.64	11.07	5.45	997.2	1095.5
40.65	11.06	5.45	997.1	1096.4
40.66	11.06	5.44	996.8	1095.7
40.67	11.06	5.44	997.0	1095.8
40.68	11.06	5.44	997.1	1095.1
40.69	11.05	5.44	996.8	1096.2
40.7	11.06	5.44	996.8	1096.4
40.71	11.06	5.44	997.0	1095.7
40.72	11.05	5.44	996.8	1095.5
40.73	11.05	5.44	997.0	1096.1
40.74	11.05	5.44	996.8	1096.4
40.75	11.07	5.44	997.0	1096.2
40.76	11.06	5.45	996.6	1095.7
40.77	11.07	5.44	996.6	1096.0
40.78	11.05	5.44	996.6	1096.0
40.79	11.06	5.44	996.5	1096.0
40.8	11.06	5.44	996.7	1096.0
40.81	11.07	5.44	996.7	1095.7
40.82	11.06	5.44	996.4	1096.4
40.83	11.06	5.44	996.6	1096.1
40.84	11.06	5.44	996.8	1095.8
40.85	11.07	5.44	996.7	1095.8
40.86	11.06	5.44	996.7	1095.7
40.87	11.07	5.44	996.7	1096.1
40.88	11.06	5.44	996.8	1095.9
40.89	11.08	5.44	996.6	1095.7
40.9	11.06	5.44	996.9	1095.7
40.91	11.06	5.44	996.4	1095.9
40.92	11.04	5.44	996.3	1095.7
40.93	11.06	5.44	996.4	1095.6
40.94	11.07	5.44	996.3	1095.4
40.95	11.07	5.44	996.5	1096.0
40.96	11.05	5.44	996.5	1095.4
40.97	11.06	5.44	996.3	1095.6
40.98	11.06	5.44	996.4	1095.6
40.99	11.06	5.44	996.5	1095.7
41.0	11.05	5.44	996.4	1095.5
41.01	11.07	5.44	996.4	1095.2
41.02	11.07	5.44	996.4	1095.5
41.03	11.06	5.44	996.4	1095.0
41.04	11.07	5.44	996.1	1095.6
41.05	11.07	5.44	996.3	1095.3
41.06	11.06	5.44	996.2	1095.2
41.07	11.06	5.44	996.3	1095.0
41.08	11.06	5.43	996.4	1095.4
41.09	11.07	5.44	996.2	1095.0
41.1	11.06	5.44	996.1	1095.4
41.11	11.04	5.43	996.3	1094.5
41.12	11.05	5.43	996.2	1095.1
41.13	11.05	5.43	996.1	1095.1
41.14	11.05	5.43	996.2	1095.0
41.15	11.07	5.44	996.1	1094.5
41.16	11.06	5.44	996.2	1094.8
41.17	11.06	5.44	996.0	1095.0
41.18	11.07	5.44	996.1	1094.4
41.19	11.06	5.43	996.1	1094.2
41.2	11.07	5.44	995.9	1094.3
41.21	11.05	5.43	996.2	1095.1
41.22	11.07	5.44	995.9	1094.2
41.23	11.06	5.44	996.1	1094.7
41.24	11.05	5.43	996.1	1094.4
41.25	11.05	5.43	996.0	1094.3
41.26	11.07	5.44	996.1	1094.6
41.27	11.06	5.44	996.1	1094.5
41.28	11.07	5.44	996.1	1094.2
41.29	11.06	5.44	996.1	1094.1
41.3	11.07	5.44	996.0	1094.4
41.31	11.06	5.43	996.4	1094.3
41.32	11.06	5.43	996.1	1094.5
41.33	11.07	5.44	996.0	1093.9
41.34	11.06	5.43	996.3	1094.3
41.35	11.05	5.43	996.0	1094.1
41.36	11.06	5.43	996.0	1094.6
41.37	11.06	5.44	996.0	1094.2
41.38	11.06	5.44	996.0	1094.6
41.39	11.06	5.43	995.8	1094.1
41.4	11.06	5.44	995.9	1094.0
41.41	11.06	5.43	995.7	1093.9
41.42	11.05	5.43	995.8	1093.8
41.43	11.05	5.43	996.1	1094.2
41.44	11.05	5.43	995.8	1093.5
41.45	11.04	5.43	995.7	1093.9
41.46	11.06	5.43	995.7	1093.4
41.47	11.05	5.43	995.8	1093.7
41.48	11.05	5.43	995.7	1093.7
41.49	11.07	5.43	995.7	1093.3
41.5	11.06	5.43	995.9	1093.1
41.51	11.07	5.44	996.2	1093.9
41.52	11.06	5.43	995.4	1093.7
41.53	11.06	5.43	995.7	1093.9
41.54	11.06	5.43	995.6	1093.5
41.55	11.06	5.43	995.5	1093.4
41.56	11.06	5.43	995.6	1093.6
41.57	11.07	5.43	995.7	1093.8
41.58	11.06	5.43	995.4	1094.2
41.59	11.07	5.43	995.7	1093.6
41.6	11.07	5.43	995.4	1093.6
41.61	11.07	5.43	995.4	1093.6
41.62	11.05	5.43	995.6	1093.6
41.63	11.07	5.43	995.5	1093.2
41.64	11.05	5.43	995.6	1093.4
41.65	11.05	5.43	995.4	1093.4
41.66	11.06	5.43	995.5	1093.4
41.67	11.06	5.43	995.4	1092.9
41.68	11.06	5.43	995.6	1093.1
41.69	11.07	5.43	995.5	1093.3
41.7	11.05	5.43	995.6	1093.4
41.71	11.06	5.43	995.7	1092.9
41.72	11.05	5.42	995.3	1092.8
41.73	11.06	5.43	995.4	1093.6
41.74	11.07	5.43	995.6	1093.5
41.75	11.05	5.43	995.2	1093.7
41.76	11.05	5.42	995.5	1092.9
41.77	11.05	5.43	995.2	1093.5
41.78	11.06	5.43	995.4	1093.5
41.79	11.06	5.43	995.4	1093.2
41.8	11.06	5.43	995.3	1093.2
41.81	11.07	5.43	995.3	1092.7
41.82	11.06	5.43	995.3	1092.8
41.83	11.06	5.43	995.2	1092.7
41.84	11.07	5.43	995.3	1093.1
41.85	11.06	5.43	995.3	1092.4
41.86	11.06	5.43	995.2	1092.9
41.87	11.06	5.43	995.4	1093.0
41.88	11.06	5.43	995.2	1092.8
41.89	11.06	5.43	995.1	1092.3
41.9	11.06	5.43	995.2	1093.0
41.91	11.05	5.43	995.2	1092.6
41.92	11.07	5.43	995.3	1092.5
41.93	11.05	5.43	995.2	1092.7
41.94	11.07	5.43	995.5	1092.5
41.95	11.06	5.43	995.3	1092.6
41.96	11.06	5.42	995.3	1092.8
41.97	11.05	5.43	995.0	1092.8
41.98	11.06	5.43	995.3	1092.2
41.99	11.06	5.43	995.4	1093.1
42.0	11.07	5.43	995.2	1092.8
42.01	11.05	5.42	995.2	1092.9
42.02	11.07	5.43	995.3	1092.2
42.03	11.05	5.43	995.2	1092.3
42.04	11.07	5.43	995.0	1092.5
42.05	11.06	5.43	995.2	1092.6
42.06	11.06	5.42	994.9	1092.5
42.07	11.05	5.42	995.2	1092.0
42.08	11.06	5.43	995.0	1092.2
42.09	11.06	5.43	995.0	1091.9
42.1	11.06	5.43	995.1	1092.7
42.11	11.08	5.43	994.8	1091.8
42.12	11.06	5.43	995.0	1092.2
42.13	11.05	5.42	995.0	1092.1
42.14	11.06	5.42	995.0	1091.6
42.15	11.05	5.42	995.0	1091.8
42.16	11.05	5.43	994.9	1092.1
42.17	11.07	5.43	995.0	1092.6
42.18	11.05	5.42	994.9	1092.2
42.19	11.07	5.43	995.0	1091.6
42.2	11.05	5.42	995.0	1091.6
42.21	11.05	5.42	995.1	1091.8
42.22	11.05	5.42	994.9	1092.1
42.23	11.05	5.42	995.2	1092.1
42.24	11.06	5.42	995.1	1091.6
42.25	11.06	5.42	994.8	1091.5
42.26	11.06	5.43	995.1	1091.6
42.27	11.07	5.42	994.9	1091.6
42.28	11.07	5.43	995.2	1091.9
42.29	11.07	5.42	994.7	1091.7
42.3	11.06	5.42	994.7	1091.8
42.31	11.07	5.43	995.0	1091.8
42.32	11.05	5.42	994.4	1091.8
42.33	11.06	5.42	994.8	1090.9
42.34	11.07	5.43	994.7	1091.6
42.35	11.07	5.43	994.7	1091.7
42.36	11.06	5.42	994.6	1091.4
42.37	11.06	5.43	994.8	1090.9
42.38	11.06	5.42	994.4	1091.6
42.39	11.05	5.42	994.8	1091.6
42.4	11.06	5.42	994.7	1091.6
42.41	11.05	5.42	994.5	1091.0
42.42	11.06	5.42	994.6	1091.3
42.43	11.05	5.42	994.6	1091.1
42.44	11.06	5.42	994.5	1091.1
42.45	11.05	5.42	994.7	1090.8
42.46	11.06	5.42	994.7	1090.7
42.47	11.07	5.42	994.8	1091.5
42.48	11.06	5.42	994.6	1091.1
42.49	11.07	5.43	994.8	1091.0
42.5	11.06	5.42	994.5	1090.6
42.51	11.04	5.42	994.8	1091.0
42.52	11.08	5.43	994.4	1091.3
42.53	11.06	5.42	994.8	1091.3
42.54	11.05	5.42	994.8	1090.5
42.55	11.05	5.42	994.4	1091.0
42.56	11.06	5.42	994.7	1090.8
42.57	11.06	5.42	994.4	1090.9
42.58	11.06	5.42	994.3	1090.0
42.59	11.06	5.42	994.4	1090.3
42.6	11.07	5.42	994.5	1091.2
42.61	11.05	5.42	994.3	1091.0
42.62	11.07	5.42	994.4	1091.0
42.63	11.06	5.42	994.3	1089.8
42.64	11.05	5.41	994.4	1091.3
42.65	11.06	5.42	994.4	1090.7
42.66	11.06	5.42	994.4	1090.6
42.67	11.05	5.42	994.3	1090.0
42.68	11.06	5.42	994.2	1090.5
42.69	11.05	5.42	994.3	1090.6
42.7	11.06	5.42	994.5	1090.5
42.71	11.06	5.42	994.6	1090.4
42.72	11.07	5.42	994.3	1090.6
42.73	11.06	5.42	994.6	1091.2
42.74	11.06	5.42	994.3	1090.6
42.75	11.07	5.43	994.3	1090.2
42.76	11.06	5.42	994.5	1090.0
42.77	11.05	5.42	994.1	1090.8
42.78	11.06	5.42	994.3	1090.5
42.79	11.05	5.42	994.3	1090.5
42.8	11.06	5.42	994.4	1089.7
42.81	11.06	5.42	994.4	1090.5
42.82	11.05	5.42	994.5	1090.4
42.83	11.07	5.42	994.3	1089.9
42.84	11.06	5.42	994.1	1090.6
42.85	11.07	5.42	994.4	1089.8
42.86	11.07	5.42	994.1	1091.3
42.87	11.05	5.42	994.5	1090.3
42.88	11.06	5.42	994.3	1090.6
42.89	11.07	5.42	994.2	1090.4
42.9	11.05	5.41	994.1	1090.0
42.91	11.06	5.42	994.0	1090.0
42.92	11.05	5.42	994.1	1090.0
42.93	11.07	5.42	994.3	1089.6
42.94	11.05	5.41	994.0	1090.2
42.95	11.06	5.41	994.0	1090.1
42.96	11.06	5.42	994.0	1089.9
42.97	11.07	5.42	994.0	1090.3
42.98	11.06	5.42	994.0	1089.7
42.99	11.07	5.42	994.3	1090.3
43.0	11.05	5.42	994.1	1090.1
43.01	11.07	5.42	994.0	1089.9
43.02	11.07	5.42	993.8	1089.2
43.03	11.08	5.42	993.9	1090.2
43.04	11.05	5.42	993.9	1089.9
43.05	11.05	5.41	993.8	1090.4
43.06	11.06	5.41	993.8	1089.7
43.07	11.07	5.42	993.9	1089.8
43.08	11.05	5.41	993.9	1089.9
43.09	11.06	5.41	993.7	1089.8
43.1	11.05	5.41	993.8	1090.1
43.11	11.06	5.41	994.0	1089.5
43.12	11.06	5.42	993.7	1089.7
43.13	11.06	5.41	994.0	1089.3
43.14	11.07	5.42	993.7	1089.5
43.15	11.06	5.42	993.5	1089.1
43.16	11.05	5.41	993.8	1089.4
43.17	11.06	5.42	994.0	1089.5
43.18	11.06	5.41	993.7	1089.2
43.19	11.05	5.41	993.6	1089.0
43.2	11.07	5.42	993.7	1088.8
43.21	11.06	5.42	993.8	1089.1
43.22	11.06	5.41	993.8	1088.5
43.23	11.05	5.41	994.1	1089.7
43.24	11.06	5.41	993.6	1088.5
43.25	11.05	5.41	993.7	1089.2
43.26	11.06	5.41	993.5	1089.0
43.27	11.06	5.41	993.5	1089.3
43.28	11.06	5.41	993.6	1088.8
43.29	11.06	5.41	993.6	1088.9
43.3	11.06	5.41	993.5	1089.3
43.31	11.06	5.41	993.2	1088.8
43.32	11.06	5.42	993.5	1088.9
43.33	11.06	5.41	993.6	1089.1
43.34	11.05	5.41	993.4	1089.3
43.35	11.06	5.42	993.5	1088.8
43.36	11.06	5.41	993.2	1089.5
43.37	11.06	5.41	993.2	1088.7
43.38	11.06	5.42	993.4	1088.8
43.39	11.04	5.41	993.3	1089.5
43.4	11.06	5.41	993.5	1089.2
43.41	11.06	5.41	993.1	1088.6
43.42	11.07	5.41	993.1	1088.8
43.43	11.06	5.41	993.4	1088.9
43.44	11.05	5.41	993.1	1088.3
43.45	11.06	5.42	993.3	1088.6
43.46	11.07	5.42	993.2	1088.3
43.47	11.06	5.41	993.3	1089.0
43.48	11.06	5.41	993.3	1088.7
43.49	11.06	5.41	993.1	1088.3
43.5	11.07	5.41	993.2	1087.6
43.51	11.06	5.41	993.0	1088.2
43.52	11.06	5.41	993.2	1088.8
43.53	11.06	5.41	993.4	1088.5
43.54	11.06	5.41	992.9	1088.1
43.55	11.06	5.41	993.4	1088.4
43.56	11.06	5.41	993.3	1088.7
43.57	11.07	5.41	993.4	1088.4
43.58	11.06	5.41	993.4	1088.7
43.59	11.06	5.41	993.2	1088.1
43.6	11.05	5.41	993.4	1088.3
43.61	11.06	5.41	993.3	1088.4
43.62	11.06	5.41	993.0	1088.3
43.63	11.06	5.41	993.4	1087.9
43.64	11.07	5.41	993.0	1088.1
43.65	11.06	5.41	993.2	1088.3
43.66	11.06	5.41	993.2	1088.2
43.67	11.06	5.41	993.0	1087.8
43.68	11.05	5.41	993.2	1087.7
43.69	11.06	5.41	993.0	1088.8
43.7	11.06	5.41	993.0	1088.0
43.71	11.07	5.41	993.0	1088.3
43.72	11.04	5.41	992.8	1087.9
43.73	11.06	5.41	993.0	1088.4
43.74	11.06	5.41	992.9	1088.4
43.75	11.07	5.41	992.8	1087.8
43.76	11.07	5.41	992.8	1088.0
43.77	11.07	5.41	992.9	1088.2
43.78	11.05	5.41	993.0	1088.1
43.79	11.06	5.41	992.9	1088.0
43.8	11.06	5.41	992.7	1088.0
43.81	11.06	5.41	992.8	1087.9
43.82	11.08	5.41	992.7	1087.8
43.83	11.06	5.41	992.6	1087.8
43.84	11.06	5.41	993.0	1087.7
43.85	11.07	5.41	993.0	1087.9
43.86	11.06	5.41	993.0	1088.1
43.87	11.06	5.41	992.8	1088.2
43.88	11.07	5.41	992.9	1088.7
43.89	11.07	5.41	992.9	1087.7
43.9	11.06	5.41	993.0	1087.9
43.91	11.05	5.4	992.8	1088.0
43.92	11.08	5.41	992.8	1087.7
43.93	11.05	5.41	992.7	1087.7
43.94	11.06	5.41	992.7	1087.2
43.95	11.05	5.4	992.6	1087.5
43.96	11.05	5.4	992.8	1087.5
43.97	11.05	5.4	992.6	1087.6
43.98	11.06	5.41	992.7	1086.6
43.99	11.06	5.41	992.7	1087.5
44.0	11.07	5.41	992.5	1087.5
44.01	11.06	5.41	992.5	1087.6
44.02	11.06	5.41	992.6	1087.1
44.03	11.05	5.4	992.5	1086.8
44.04	11.07	5.41	992.5	1086.8
44.05	11.06	5.41	992.7	1086.9
44.06	11.05	5.4	992.8	1087.1
44.07	11.06	5.41	992.3	1086.7
44.08	11.06	5.41	992.5	1087.8
44.09	11.06	5.4	992.6	1087.2
44.1	11.07	5.41	992.5	1087.4
44.11	11.05	5.4	992.4	1087.0
44.12	11.07	5.41	992.5	1087.1
44.13	11.06	5.41	992.6	1087.1
44.14	11.05	5.4	992.7	1086.9
44.15	11.06	5.4	992.7	1086.6
44.16	11.05	5.4	992.5	1086.8
44.17	11.06	5.41	992.8	1087.6
44.18	11.07	5.41	992.5	1087.2
44.19	11.07	5.41	992.4	1087.5
44.2	11.06	5.4	992.4	1086.9
44.21	11.06	5.41	992.2	1087.3
44.22	11.07	5.41	992.5	1086.7
44.23	11.06	5.4	992.4	1086.8
44.24	11.06	5.4	992.4	1086.6
44.25	11.05	5.4	992.0	1086.8
44.26	11.05	5.4	992.0	1086.7
44.27	11.07	5.41	992.2	1086.8
44.28	11.06	5.4	992.1	1086.4
44.29	11.06	5.4	992.1	1086.6
44.3	11.06	5.4	992.3	1086.4
44.31	11.06	5.4	992.1	1086.6
44.32	11.06	5.4	992.1	1086.6
44.33	11.06	5.4	991.8	1086.5
44.34	11.06	5.4	992.1	1086.8
44.35	11.07	5.4	991.9	1086.9
44.36	11.05	5.4	992.0	1086.2
44.37	11.06	5.4	991.7	1085.9
44.38	11.05	5.4	992.0	1086.7
44.39	11.06	5.4	992.1	1086.7
44.4	11.06	5.4	992.0	1085.8
44.41	11.06	5.4	992.1	1085.8
44.42	11.06	5.4	991.6	1086.2
44.43	11.07	5.41	991.9	1085.9
44.44	11.06	5.41	991.7	1086.4
44.45	11.05	5.4	991.4	1086.2
44.46	11.05	5.4	991.9	1086.0
44.47	11.07	5.41	991.6	1086.1
44.48	11.06	5.41	991.7	1086.2
44.49	11.07	5.4	991.4	1085.8
44.5	11.06	5.4	991.8	1085.4
44.51	11.06	5.4	991.6	1085.9
44.52	11.06	5.4	991.7	1085.4
44.53	11.05	5.4	991.5	1085.6
44.54	11.05	5.4	991.4	1085.6
44.55	11.06	5.4	992.0	1085.9
44.56	11.07	5.4	991.5	1085.4
44.57	11.07	5.4	991.8	1085.5
44.58	11.05	5.4	991.7	1085.4
44.59	11.07	5.4	991.6	1085.4
44.6	11.07	5.4	991.6	1086.0
44.61	11.05	5.4	991.6	1085.5
44.62	11.07	5.4	991.8	1085.5
44.63	11.06	5.4	991.5	1085.8
44.64	11.06	5.4	991.6	1086.3
44.65	11.06	5.4	991.7	1086.1
44.66	11.06	5.4	991.6	1085.9
44.67	11.06	5.4	991.6	1085.2
44.68	11.06	5.4	991.5	1085.8
44.69	11.06	5.4	991.6	1085.7
44.7	11.07	5.4	991.2	1085.6
44.71	11.06	5.4	991.4	1085.9
44.72	11.07	5.4	991.6	1085.5
44.73	11.06	5.4	991.2	1085.6
44.74	11.06	5.4	991.3	1085.0
44.75	11.05	5.4	991.3	1085.3
44.76	11.06	5.4	991.4	1084.7
44.77	11.05	5.4	991.5	1085.2
44.78	11.06	5.4	991.2	1085.0
44.79	11.04	5.4	991.4	1085.6
44.8	11.06	5.4	991.2	1084.2
44.81	11.06	5.4	991.2	1084.9
44.82	11.07	5.4	991.2	1084.4
44.83	11.06	5.4	991.0	1084.4
44.84	11.07	5.4	991.0	1084.2
44.85	11.05	5.4	991.1	1084.6
44.86	11.07	5.4	991.1	1084.4
44.87	11.05	5.39	991.0	1084.0
44.88	11.06	5.4	991.0	1084.5
44.89	11.06	5.4	991.2	1084.0
44.9	11.07	5.4	991.2	1084.9
44.91	11.07	5.4	990.9	1084.0
44.92	11.05	5.39	991.2	1084.8
44.93	11.07	5.4	990.8	1084.0
44.94	11.05	5.4	991.0	1084.2
44.95	11.06	5.4	991.0	1084.0
44.96	11.06	5.4	991.0	1083.9
44.97	11.06	5.4	991.2	1083.6
44.98	11.06	5.4	990.9	1083.8
44.99	11.07	5.4	990.9	1084.0
45.0	11.07	5.4	991.0	1084.5
45.01	11.08	5.4	991.0	1084.1
45.02	11.05	5.39	990.7	1083.8
45.03	11.07	5.4	991.0	1084.6
45.04	11.06	5.4	990.9	1084.2
45.05	11.07	5.4	991.0	1084.1
45.06	11.05	5.4	990.8	1083.8
45.07	11.06	5.4	990.9	1084.1
45.08	11.05	5.39	991.1	1084.6
45.09	11.07	5.4	990.9	1083.8
45.1	11.06	5.4	990.8	1083.4
45.11	11.06	5.4	990.9	1083.9
45.12	11.06	5.4	990.9	1083.7
45.13	11.05	5.39	990.9	1084.3
45.14	11.06	5.4	990.6	1084.1
45.15	11.06	5.4	990.6	1083.8
45.16	11.06	5.4	990.8	1083.9
45.17	11.06	5.4	990.6	1084.2
45.18	11.06	5.4	990.5	1083.7
45.19	11.06	5.4	990.8	1083.5
45.2	11.06	5.4	990.7	1083.8
45.21	11.05	5.39	990.6	1083.6
45.22	11.05	5.39	990.6	1083.5
45.23	11.05	5.39	990.9	1083.5
45.24	11.06	5.39	990.7	1083.1
45.25	11.07	5.4	990.8	1083.9
45.26	11.07	5.4	990.8	1083.7
45.27	11.06	5.4	990.8	1083.8
45.28	11.06	5.4	990.7	1083.3
45.29	11.06	5.39	990.8	1083.6
45.3	11.07	5.4	990.7	1083.7
45.31	11.05	5.39	991.2	1084.1
45.32	11.06	5.39	990.7	1083.4
45.33	11.06	5.4	990.7	1083.5
45.34	11.06	5.39	990.5	1083.9
45.35	11.07	5.39	990.8	1083.9
45.36	11.06	5.39	990.7	1083.7
45.37	11.06	5.4	990.8	1083.4
45.38	11.05	5.39	990.9	1083.6
45.39	11.06	5.39	990.7	1083.5
45.4	11.07	5.4	990.6	1083.4
45.41	11.05	5.39	990.7	1082.8
45.42	11.07	5.4	990.7	1083.7
45.43	11.06	5.39	990.5	1083.7
45.44	11.06	5.4	990.6	1083.4
45.45	11.05	5.39	990.6	1082.8
45.46	11.05	5.39	990.4	1083.3
45.47	11.05	5.39	990.9	1083.7
45.48	11.05	5.39	990.6	1083.8
45.49	11.06	5.39	990.7	1083.1
45.5	11.05	5.39	990.6	1082.4
45.51	11.05	5.39	990.5	1083.6
45.52	11.06	5.39	990.4	1083.7
45.53	11.05	5.39	990.4	1083.5
45.54	11.05	5.39	990.3	1083.1
45.55	11.05	5.39	990.4	1083.3
45.56	11.06	5.39	990.4	1083.8
45.57	11.06	5.39	990.5	1083.6
45.58	11.06	5.39	990.3	1083.6
45.59	11.06	5.39	990.6	1083.4
45.6	11.05	5.39	990.3	1083.7
45.61	11.06	5.39	990.5	1083.1
45.62	11.06	5.39	990.4	1083.4
45.63	11.06	5.39	990.5	1083.3
45.64	11.06	5.39	990.4	1083.6
45.65	11.05	5.39	990.5	1083.5
45.66	11.06	5.39	990.3	1083.4
45.67	11.05	5.39	990.3	1083.2
45.68	11.06	5.39	990.3	1083.1
45.69	11.07	5.39	990.1	1083.4
45.7	11.06	5.39	990.2	1083.0
45.71	11.06	5.39	990.2	1083.5
45.72	11.05	5.39	990.2	1082.6
45.73	11.07	5.39	990.4	1083.0
45.74	11.05	5.39	990.1	1082.6
45.75	11.06	5.39	990.0	1082.8
45.76	11.06	5.39	989.9	1082.4
45.77	11.06	5.39	990.0	1082.8
45.78	11.05	5.39	990.0	1083.0
45.79	11.06	5.39	990.1	1083.0
45.8	11.06	5.39	989.8	1082.7
45.81	11.06	5.39	990.0	1082.8
45.82	11.05	5.39	989.9	1082.6
45.83	11.07	5.39	989.9	1082.6
45.84	11.06	5.39	990.0	1082.7
45.85	11.07	5.39	990.2	1081.9
45.86	11.06	5.39	990.0	1082.3
45.87	11.06	5.39	989.9	1082.5
45.88	11.05	5.39	990.0	1082.3
45.89	11.07	5.39	989.8	1082.2
45.9	11.06	5.39	990.0	1082.3
45.91	11.06	5.39	990.0	1082.7
45.92	11.07	5.39	989.8	1082.2
45.93	11.05	5.39	990.0	1082.6
45.94	11.07	5.39	989.8	1081.6
45.95	11.05	5.39	990.0	1082.2
45.96	11.06	5.39	989.7	1082.1
45.97	11.06	5.39	989.8	1082.4
45.98	11.05	5.39	989.7	1081.6
45.99	11.06	5.39	989.9	1082.6
46.0	11.06	5.39	989.6	1081.9
46.01	11.06	5.39	989.9	1081.8
46.02	11.05	5.39	989.6	1082.0
46.03	11.05	5.39	989.5	1082.0
46.04	11.06	5.39	989.5	1082.0
46.05	11.06	5.39	989.7	1082.2
46.06	11.06	5.39	989.8	1081.7
46.07	11.06	5.39	989.6	1081.6
46.08	11.06	5.38	989.4	1082.2
46.09	11.06	5.39	989.7	1081.9
46.1	11.06	5.39	989.7	1081.8
46.11	11.05	5.38	989.7	1081.8
46.12	11.06	5.39	989.5	1081.5
46.13	11.06	5.39	989.8	1081.5
46.14	11.07	5.39	989.8	1081.2
46.15	11.06	5.39	989.6	1081.6
46.16	11.06	5.38	989.4	1081.5
46.17	11.05	5.39	989.6	1081.0
46.18	11.07	5.39	989.6	1081.2
46.19	11.05	5.38	989.7	1081.2
46.2	11.05	5.38	989.5	1081.0
46.21	11.05	5.38	989.6	1081.2
46.22	11.06	5.39	989.7	1081.1
46.23	11.06	5.39	989.6	1081.0
46.24	11.06	5.39	989.7	1080.4
46.25	11.06	5.39	989.6	1081.4
46.26	11.06	5.38	989.6	1081.3
46.27	11.06	5.39	989.8	1081.5
46.28	11.05	5.38	989.5	1080.7
46.29	11.05	5.39	989.6	1081.2
46.3	11.07	5.39	989.7	1080.9
46.31	11.05	5.38	989.7	1080.6
46.32	11.06	5.39	989.8	1080.5
46.33	11.06	5.39	989.8	1080.6
46.34	11.06	5.39	989.6	1081.1
46.35	11.07	5.39	989.5	1080.8
46.36	11.05	5.38	989.4	1080.7
46.37	11.06	5.39	989.5	1080.4
46.38	11.06	5.39	989.8	1081.1
46.39	11.05	5.38	989.7	1081.0
46.4	11.06	5.39	989.6	1080.9
46.41	11.07	5.39	989.8	1080.3
46.42	11.05	5.38	989.6	1081.1
46.43	11.07	5.39	989.7	1081.0
46.44	11.06	5.38	989.6	1080.9
46.45	11.07	5.39	989.9	1080.8
46.46	11.07	5.39	989.7	1080.9
46.47	11.06	5.38	989.6	1080.9
46.48	11.06	5.38	989.4	1080.9
46.49	11.07	5.38	989.5	1080.6
46.5	11.05	5.38	989.5	1080.6
46.51	11.06	5.38	989.8	1081.1
46.52	11.05	5.38	989.5	1081.1
46.53	11.06	5.38	989.6	1081.1
46.54	11.05	5.38	989.4	1080.3
46.55	11.06	5.38	989.8	1081.3
46.56	11.06	5.38	989.7	1081.2
46.57	11.07	5.38	989.5	1080.8
46.58	11.06	5.38	989.4	1080.4
46.59	11.05	5.38	989.7	1080.9
46.6	11.06	5.39	989.3	1081.0
46.61	11.06	5.38	989.6	1080.7
46.62	11.05	5.38	989.7	1080.3
46.63	11.06	5.38	989.9	1080.3
46.64	11.06	5.39	989.7	1081.0
46.65	11.05	5.38	989.7	1080.7
46.66	11.07	5.39	989.4	1080.6
46.67	11.06	5.38	989.6	1080.0
46.68	11.05	5.38	989.5	1080.6
46.69	11.07	5.39	989.6	1080.8
46.7	11.06	5.39	989.4	1080.8
46.71	11.05	5.38	989.7	1080.3
46.72	11.06	5.38	989.9	1080.1
46.73	11.06	5.38	989.5	1080.6
46.74	11.06	5.38	989.6	1080.5
46.75	11.06	5.38	989.8	1080.2
46.76	11.06	5.38	989.4	1080.1
46.77	11.06	5.39	989.5	1080.6
46.78	11.05	5.38	989.5	1080.6
46.79	11.06	5.38	989.7	1080.6
46.8	11.05	5.38	989.8	1080.2
46.81	11.06	5.38	989.5	1080.6
46.82	11.08	5.39	989.6	1080.4
46.83	11.05	5.38	989.8	1080.4
46.84	11.07	5.38	989.8	1080.3
46.85	11.05	5.38	989.6	1080.2
46.86	11.05	5.38	989.5	1080.4
46.87	11.06	5.38	989.4	1080.7
46.88	11.05	5.38	989.5	1080.5
46.89	11.06	5.38	989.2	1080.3
46.9	11.06	5.38	989.3	1080.6
46.91	11.06	5.38	989.4	1080.7
46.92	11.07	5.38	989.4	1080.9
46.93	11.06	5.38	989.2	1080.4
46.94	11.06	5.38	989.2	1080.9
46.95	11.06	5.38	989.2	1080.8
46.96	11.05	5.38	989.2	1080.4
46.97	11.05	5.38	989.4	1079.6
46.98	11.06	5.38	989.5	1080.3
46.99	11.05	5.38	989.2	1080.4
47.0	11.07	5.38	989.4	1079.8
47.01	11.05	5.38	989.7	1079.3
47.02	11.06	5.38	989.4	1079.5
47.03	11.06	5.38	989.4	1080.2
47.04	11.06	5.38	989.4	1080.2
47.05	11.06	5.38	989.7	1080.0
47.06	11.07	5.38	989.5	1079.8
47.07	11.07	5.38	989.8	1080.6
47.08	11.05	5.38	989.5	1080.3
47.09	11.05	5.38	989.5	1080.0
47.1	11.06	5.38	989.6	1079.9
47.11	11.06	5.38	989.6	1079.7
47.12	11.07	5.38	989.3	1080.0
47.13	11.06	5.38	989.6	1080.0
47.14	11.05	5.38	989.2	1079.7
47.15	11.07	5.38	989.3	1079.6
47.16	11.08	5.39	989.4	1080.4
47.17	11.07	5.38	989.3	1080.1
47.18	11.05	5.38	989.4	1079.5
47.19	11.07	5.38	989.3	1079.8
47.2	11.06	5.38	989.5	1080.1
47.21	11.07	5.38	989.3	1079.7
47.22	11.04	5.37	989.2	1079.8
47.23	11.06	5.38	989.2	1079.6
47.24	11.06	5.38	989.1	1079.8
47.25	11.06	5.38	989.3	1079.6
47.26	11.05	5.38	989.3	1079.8
47.27	11.06	5.38	989.6	1079.2
47.28	11.06	5.38	989.5	1078.9
47.29	11.06	5.38	989.2	1079.3
47.3	11.06	5.38	989.4	1079.8
47.31	11.05	5.38	989.4	1079.3
47.32	11.05	5.38	989.4	1078.9
47.33	11.06	5.38	989.4	1079.8
47.34	11.06	5.38	989.1	1079.9
47.35	11.06	5.38	989.5	1079.6
47.36	11.07	5.38	989.4	1078.9
47.37	11.06	5.38	989.2	1079.0
47.38	11.05	5.37	989.0	1079.1
47.39	11.07	5.38	989.3	1079.5
47.4	11.05	5.37	989.4	1078.9
47.41	11.05	5.38	988.9	1078.4
47.42	11.06	5.38	989.0	1078.6
47.43	11.06	5.38	989.3	1078.7
47.44	11.06	5.38	988.9	1078.7
47.45	11.06	5.38	989.1	1078.3
47.46	11.07	5.38	988.7	1079.0
47.47	11.05	5.38	988.9	1078.8
47.48	11.06	5.38	988.7	1078.6
47.49	11.05	5.38	988.9	1078.0
47.5	11.05	5.37	988.8	1078.4
47.51	11.04	5.37	988.8	1078.7
47.52	11.07	5.38	988.7	1078.5
47.53	11.06	5.38	988.8	1078.9
47.54	11.06	5.38	988.6	1078.4
47.55	11.07	5.38	988.6	1079.0
47.56	11.05	5.37	988.7	1078.7
47.57	11.05	5.38	988.8	1079.1
47.58	11.07	5.38	988.5	1078.4
47.59	11.05	5.38	988.7	1079.2
47.6	11.06	5.37	988.6	1078.8
47.61	11.05	5.37	988.5	1078.7
47.62	11.07	5.38	988.4	1078.4
47.63	11.07	5.38	988.8	1079.4
47.64	11.07	5.38	988.4	1078.9
47.65	11.06	5.38	988.6	1078.6
47.66	11.07	5.38	988.6	1078.8
47.67	11.05	5.38	988.6	1078.3
47.68	11.07	5.38	988.9	1078.8
47.69	11.06	5.38	989.0	1078.5
47.7	11.07	5.38	988.8	1078.7
47.71	11.05	5.37	988.8	1078.3
47.72	11.06	5.38	988.8	1078.7
47.73	11.06	5.38	988.9	1078.4
47.74	11.06	5.37	988.7	1078.2
47.75	11.05	5.38	988.7	1078.3
47.76	11.06	5.37	988.8	1078.2
47.77	11.06	5.38	988.7	1078.7
47.78	11.06	5.37	988.6	1078.3
47.79	11.05	5.37	988.6	1078.3
47.8	11.06	5.38	988.6	1078.0
47.81	11.05	5.37	988.9	1078.4
47.82	11.06	5.38	988.6	1078.4
47.83	11.06	5.38	988.7	1078.5
47.84	11.05	5.37	988.5	1077.6
47.85	11.06	5.37	988.6	1078.1
47.86	11.05	5.37	988.5	1078.2
47.87	11.06	5.37	988.3	1077.8
47.88	11.06	5.37	988.4	1077.8
47.89	11.05	5.37	988.5	1078.0
47.9	11.07	5.37	988.6	1078.0
47.91	11.08	5.38	988.5	1077.9
47.92	11.05	5.37	988.4	1077.8
47.93	11.07	5.37	988.4	1077.9
47.94	11.05	5.37	988.5	1078.1
47.95	11.05	5.37	988.4	1077.6
47.96	11.06	5.37	988.4	1077.8
47.97	11.06	5.37	988.5	1077.5
47.98	11.06	5.37	988.6	1078.0
47.99	11.06	5.37	988.6	1077.9
48.0	11.06	5.38	988.3	1077.8
48.01	11.07	5.38	988.6	1077.7
48.02	11.06	5.37	988.6	1077.1
48.03	11.07	5.38	988.7	1077.8
48.04	11.06	5.37	988.2	1077.4
48.05	11.07	5.38	988.4	1077.7
48.06	11.06	5.37	988.4	1076.9
48.07	11.07	5.37	988.3	1077.7
48.08	11.06	5.37	988.2	1077.5
48.09	11.07	5.38	988.2	1078.1
48.1	11.05	5.37	988.2	1077.1
48.11	11.06	5.37	988.2	1077.6
48.12	11.06	5.37	988.2	1077.6
48.13	11.06	5.37	988.0	1077.4
48.14	11.06	5.37	988.3	1077.6
48.15	11.05	5.37	988.2	1077.6
48.16	11.06	5.37	988.0	1078.0
48.17	11.06	5.37	988.2	1077.2
48.18	11.06	5.37	988.4	1078.0
48.19	11.06	5.38	988.2	1076.9
48.2	11.06	5.37	988.0	1077.7
48.21	11.06	5.38	988.2	1077.2
48.22	11.06	5.37	988.1	1077.3
48.23	11.05	5.37	988.3	1076.6
48.24	11.06	5.37	988.3	1077.3
48.25	11.05	5.37	988.0	1077.2
48.26	11.05	5.37	987.7	1077.1
48.27	11.05	5.37	988.1	1077.2
48.28	11.06	5.37	987.8	1076.8
48.29	11.05	5.37	988.3	1077.3
48.3	11.07	5.38	988.0	1077.1
48.31	11.06	5.37	987.9	1076.6
48.32	11.06	5.37	988.0	1075.8
48.33	11.05	5.37	988.1	1076.9
48.34	11.05	5.37	988.0	1076.8
48.35	11.05	5.37	987.9	1076.1
48.36	11.05	5.37	987.6	1075.8
48.37	11.06	5.37	987.8	1076.8
48.38	11.06	5.37	987.9	1077.1
48.39	11.06	5.37	987.9	1077.1
48.4	11.07	5.37	987.8	1077.5
48.41	11.06	5.37	987.8	1076.5
48.42	11.05	5.37	988.0	1076.3
48.43	11.06	5.37	987.9	1076.4
48.44	11.06	5.37	987.9	1076.0
48.45	11.07	5.37	988.0	1076.0
48.46	11.05	5.37	987.7	1076.3
48.47	11.06	5.37	987.9	1076.6
48.48	11.05	5.37	988.0	1076.4
48.49	11.06	5.37	988.1	1076.4
48.5	11.06	5.37	987.9	1076.4
48.51	11.05	5.37	987.9	1076.5
48.52	11.06	5.37	987.8	1076.5
48.53	11.07	5.37	987.7	1076.6
48.54	11.05	5.37	987.7	1076.0
48.55	11.07	5.37	987.6	1076.7
48.56	11.05	5.37	987.7	1076.0
48.57	11.06	5.37	987.8	1076.4
48.58	11.05	5.37	987.6	1076.1
48.59	11.05	5.36	987.7	1076.6
48.6	11.05	5.37	987.7	1076.5
48.61	11.06	5.37	987.6	1076.4
48.62	11.06	5.37	987.5	1075.9
48.63	11.07	5.38	987.7	1076.5
48.64	11.05	5.37	987.4	1076.3
48.65	11.06	5.37	987.6	1076.1
48.66	11.05	5.37	987.6	1075.7
48.67	11.05	5.37	987.4	1075.3
48.68	11.05	5.37	987.4	1076.3
48.69	11.06	5.37	987.3	1076.1
48.7	11.06	5.37	987.6	1075.9
48.71	11.06	5.37	987.6	1075.6
48.72	11.05	5.36	987.8	1076.0
48.73	11.06	5.37	987.6	1075.8
48.74	11.06	5.37	987.5	1076.1
48.75	11.06	5.37	987.6	1076.0
48.76	11.06	5.37	987.6	1075.9
48.77	11.06	5.37	987.6	1076.2
48.78	11.05	5.37	987.4	1075.6
48.79	11.06	5.37	987.6	1075.8
48.8	11.06	5.37	987.2	1075.2
48.81	11.06	5.37	987.7	1075.8
48.82	11.06	5.37	987.4	1075.5
48.83	11.06	5.37	987.4	1075.8
48.84	11.06	5.37	987.2	1075.2
48.85	11.05	5.37	987.5	1075.6
48.86	11.06	5.37	987.2	1075.7
48.87	11.06	5.37	987.4	1075.6
48.88	11.06	5.37	987.2	1075.8
48.89	11.06	5.37	987.7	1074.9
48.9	11.05	5.37	987.3	1075.8
48.91	11.06	5.37	987.2	1075.6
48.92	11.06	5.37	987.4	1075.0
48.93	11.05	5.36	987.2	1074.7
48.94	11.07	5.37	987.4	1075.1
48.95	11.06	5.37	987.2	1075.4
48.96	11.06	5.37	987.4	1075.8
48.97	11.06	5.37	987.3	1075.2
48.98	11.07	5.37	987.2	1075.1
48.99	11.05	5.37	987.3	1075.6
49.0	11.06	5.37	987.2	1074.8
49.01	11.05	5.37	987.2	1075.3
49.02	11.07	5.37	987.4	1074.6
49.03	11.06	5.36	987.2	1075.3
49.04	11.07	5.37	987.4	1074.7
49.05	11.05	5.36	987.2	1074.9
49.06	11.06	5.37	987.1	1075.2
49.07	11.05	5.36	987.4	1075.2
49.08	11.05	5.36	987.2	1074.9
49.09	11.05	5.36	987.2	1074.9
49.1	11.06	5.37	987.2	1074.5
49.11	11.06	5.37	987.4	1074.7
49.12	11.07	5.37	987.2	1074.6
49.13	11.05	5.36	987.1	1075.0
49.14	11.07	5.36	987.1	1074.5
49.15	11.07	5.37	987.1	1074.0
49.16	11.06	5.36	987.1	1074.2
49.17	11.06	5.37	987.0	1074.5
49.18	11.07	5.37	987.0	1074.9
49.19	11.07	5.37	986.8	1074.2
49.2	11.06	5.37	987.0	1074.6
49.21	11.06	5.37	986.9	1074.7
49.22	11.06	5.37	987.0	1074.4
49.23	11.07	5.37	987.0	1073.9
49.24	11.04	5.36	986.9	1074.5
49.25	11.06	5.36	987.0	1074.6
49.26	11.06	5.36	986.7	1074.9
49.27	11.06	5.36	987.2	1074.1
49.28	11.07	5.37	987.2	1074.3
49.29	11.06	5.36	987.0	1075.0
49.3	11.06	5.37	986.7	1074.5
49.31	11.06	5.36	987.0	1075.0
49.32	11.05	5.36	987.0	1074.1
49.33	11.06	5.36	987.0	1074.7
49.34	11.05	5.36	987.0	1074.5
49.35	11.06	5.37	987.0	1074.9
49.36	11.06	5.36	987.0	1074.2
49.37	11.05	5.36	987.0	1074.2
49.38	11.05	5.37	986.9	1074.8
49.39	11.06	5.37	987.0	1074.5
49.4	11.04	5.36	986.7	1073.9
49.41	11.06	5.36	987.1	1073.6
49.42	11.06	5.36	986.8	1074.2
49.43	11.06	5.36	986.8	1074.3
49.44	11.06	5.36	986.6	1074.5
49.45	11.07	5.37	986.6	1073.9
49.46	11.07	5.37	986.6	1073.7
49.47	11.05	5.36	986.5	1073.8
49.48	11.06	5.36	986.6	1074.3
49.49	11.06	5.36	986.7	1073.7
49.5	11.05	5.36	986.5	1073.7
49.51	11.07	5.36	986.7	1074.1
49.52	11.06	5.36	986.4	1073.8
49.53	11.06	5.36	986.5	1074.2
49.54	11.07	5.36	986.6	1073.1
49.55	11.06	5.36	986.4	1074.2
49.56	11.07	5.37	986.4	1074.1
49.57	11.06	5.36	986.4	1074.2
49.58	11.05	5.36	986.2	1073.6
49.59	11.06	5.37	986.4	1074.2
49.6	11.05	5.36	986.5	1073.9
49.61	11.05	5.36	986.6	1073.8
49.62	11.06	5.36	986.5	1074.1
49.63	11.05	5.36	986.4	1073.6
49.64	11.06	5.36	986.3	1074.0
49.65	11.06	5.36	986.3	1073.8
49.66	11.07	5.36	986.5	1073.5
49.67	11.05	5.36	986.2	1073.6
49.68	11.06	5.36	986.2	1074.0
49.69	11.05	5.36	986.5	1073.9
49.7	11.06	5.36	986.2	1073.5
49.71	11.05	5.36	986.3	1073.5
49.72	11.07	5.37	986.3	1073.4
49.73	11.05	5.36	986.1	1073.9
49.74	11.07	5.36	986.1	1073.4
49.75	11.06	5.36	986.1	1073.8
49.76	11.05	5.36	985.8	1072.2
49.77	11.05	5.36	986.0	1074.1
49.78	11.05	5.36	986.1	1072.9
49.79	11.06	5.36	986.5	1073.6
49.8	11.06	5.36	986.2	1072.4
49.81	11.05	5.36	986.2	1073.5
49.82	11.06	5.36	986.1	1073.2
49.83	11.05	5.36	986.2	1073.2
49.84	11.06	5.36	985.8	1072.9
49.85	11.06	5.36	986.1	1073.8
49.86	11.05	5.36	986.0	1073.6
49.87	11.06	5.36	986.2	1073.6
49.88	11.06	5.36	986.2	1073.4
49.89	11.06	5.36	986.1	1073.0
49.9	11.06	5.36	986.1	1073.7
49.91	11.06	5.36	986.0	1073.5
49.92	11.07	5.36	986.2	1073.1
49.93	11.06	5.36	986.1	1072.6
49.94	11.06	5.36	986.0	1073.2
49.95	11.07	5.36	986.1	1073.0
49.96	11.06	5.36	986.0	1073.2
49.97	11.07	5.36	986.1	1073.2
49.98	11.07	5.36	986.0	1072.4
49.99	11.07	5.36	986.2	1073.8
50.0	11.06	5.36	986.0	1073.1
50.01	11.06	5.36	985.9	1072.8
50.02	11.05	5.36	985.9	1072.8
50.03	11.07	5.36	986.0	1073.3
50.04	11.06	5.36	985.9	1073.1
50.05	11.06	5.36	985.7	1073.3
50.06	11.06	5.36	985.8	1072.9
50.07	11.06	5.36	985.9	1072.8
50.08	11.06	5.36	985.9	1073.6
50.09	11.05	5.36	985.6	1073.4
50.1	11.06	5.36	985.7	1073.4
50.11	11.06	5.36	986.0	1072.7
50.12	11.06	5.36	985.8	1072.8
50.13	11.05	5.36	986.0	1072.8
50.14	11.06	5.36	985.8	1073.2
50.15	11.05	5.36	986.0	1072.3
50.16	11.06	5.36	986.0	1072.6
50.17	11.06	5.36	985.9	1072.6
50.18	11.07	5.36	985.8	1072.8
50.19	11.06	5.36	985.7	1072.2
50.2	11.06	5.36	986.0	1072.4
50.21	11.05	5.36	985.8	1072.5
50.22	11.07	5.36	985.7	1072.7
50.23	11.06	5.36	985.8	1072.2
50.24	11.05	5.36	985.8	1071.7
50.25	11.05	5.36	985.7	1073.0
50.26	11.07	5.36	985.9	1072.0
50.27	11.06	5.36	985.8	1072.8
50.28	11.06	5.36	985.9	1071.7
50.29	11.06	5.36	985.7	1072.2
50.3	11.05	5.36	986.0	1072.7
50.31	11.06	5.36	985.8	1072.5
50.32	11.06	5.36	985.8	1072.1
50.33	11.06	5.36	985.7	1072.2
50.34	11.06	5.36	985.5	1072.2
50.35	11.06	5.36	985.8	1072.1
50.36	11.07	5.36	985.7	1072.0
50.37	11.06	5.36	985.7	1071.6
50.38	11.06	5.36	985.9	1072.4
50.39	11.06	5.36	985.7	1072.5
50.4	11.06	5.36	985.6	1072.2
50.41	11.05	5.35	986.0	1072.0
50.42	11.07	5.36	985.5	1072.2
50.43	11.06	5.36	985.8	1072.1
50.44	11.07	5.36	985.5	1071.7
50.45	11.05	5.36	985.5	1072.4
50.46	11.05	5.35	985.5	1071.4
50.47	11.06	5.36	985.5	1071.5
50.48	11.05	5.35	985.2	1071.6
50.49	11.06	5.36	985.7	1071.9
50.5	11.07	5.36	985.4	1071.8
50.51	11.06	5.36	985.6	1072.0
50.52	11.06	5.36	985.6	1071.6
50.53	11.05	5.35	985.4	1071.9
50.54	11.05	5.35	985.6	1071.8
50.55	11.06	5.36	985.5	1072.1
50.56	11.05	5.35	985.4	1072.1
50.57	11.07	5.36	985.4	1072.2
50.58	11.06	5.36	985.3	1071.6
50.59	11.05	5.35	985.6	1071.4
50.6	11.06	5.36	985.7	1071.6
50.61	11.06	5.35	985.5	1071.9
50.62	11.05	5.35	985.6	1070.8
50.63	11.06	5.36	985.5	1071.3
50.64	11.06	5.36	985.2	1072.3
50.65	11.06	5.36	985.6	1072.0
50.66	11.05	5.35	985.2	1071.8
50.67	11.06	5.36	985.4	1071.4
50.68	11.06	5.36	985.5	1071.5
50.69	11.06	5.35	985.1	1071.6
50.7	11.05	5.35	985.3	1072.1
50.71	11.06	5.36	985.2	1072.3
50.72	11.06	5.36	985.2	1071.3
50.73	11.07	5.36	985.2	1072.3
50.74	11.06	5.36	985.4	1071.8
50.75	11.06	5.35	985.2	1071.5
50.76	11.05	5.35	985.4	1071.0
50.77	11.06	5.35	985.3	1072.0
50.78	11.06	5.36	985.2	1072.0
50.79	11.06	5.35	985.2	1072.0
50.8	11.06	5.36	985.3	1071.6
50.81	11.07	5.36	985.5	1071.5
50.82	11.05	5.35	985.2	1071.9
50.83	11.07	5.36	985.2	1071.3
50.84	11.06	5.35	985.2	1070.8
50.85	11.05	5.35	985.2	1071.0
50.86	11.06	5.36	985.1	1071.7
50.87	11.06	5.35	985.4	1071.6
50.88	11.06	5.36	985.1	1071.5
50.89	11.07	5.36	985.2	1070.7
50.9	11.06	5.35	985.2	1071.3
50.91	11.06	5.36	985.4	1071.4
50.92	11.06	5.35	985.2	1070.5
50.93	11.06	5.36	985.3	1070.8
50.94	11.07	5.36	985.4	1070.5
50.95	11.06	5.36	985.0	1071.2
50.96	11.07	5.36	985.6	1070.4
50.97	11.05	5.36	985.3	1070.3
50.98	11.06	5.35	985.2	1070.1
50.99	11.06	5.36	985.4	1070.9
51.0	11.06	5.35	985.4	1070.6
51.01	11.07	5.36	985.2	1070.8
51.02	11.07	5.36	985.2	1070.4
51.03	11.06	5.36	985.3	1070.8
51.04	11.07	5.36	985.1	1071.0
51.05	11.06	5.35	985.3	1070.7
51.06	11.06	5.35	985.0	1070.7
51.07	11.05	5.35	985.3	1070.6
51.08	11.05	5.35	985.0	1070.6
51.09	11.06	5.36	985.3	1070.6
51.1	11.06	5.35	985.0	1070.6
51.11	11.06	5.36	985.3	1070.1
51.12	11.06	5.35	984.8	1070.8
51.13	11.05	5.35	984.9	1070.6
51.14	11.06	5.35	985.0	1070.4
51.15	11.05	5.35	985.1	1070.4
51.16	11.07	5.35	985.2	1070.8
51.17	11.06	5.36	984.9	1071.1
51.18	11.06	5.35	985.0	1070.6
51.19	11.06	5.35	985.0	1070.1
51.2	11.06	5.35	985.0	1070.7
51.21	11.05	5.35	985.2	1070.5
51.22	11.07	5.36	984.7	1070.2
51.23	11.05	5.35	984.8	1070.2
51.24	11.06	5.35	984.8	1069.9
51.25	11.06	5.35	985.0	1070.6
51.26	11.06	5.35	985.1	1070.0
51.27	11.06	5.35	984.9	1070.5
51.28	11.05	5.35	984.9	1069.5
51.29	11.06	5.35	985.0	1070.8
51.3	11.06	5.36	984.8	1070.3
51.31	11.06	5.35	984.9	1070.7
51.32	11.07	5.35	984.9	1070.2
51.33	11.05	5.35	985.1	1070.1
51.34	11.05	5.35	984.7	1070.4
51.35	11.06	5.35	984.7	1069.9
51.36	11.05	5.35	984.9	1069.6
51.37	11.07	5.35	985.0	1069.7
51.38	11.07	5.36	985.0	1070.0
51.39	11.06	5.35	984.8	1069.7
51.4	11.06	5.35	984.7	1069.7
51.41	11.06	5.35	984.8	1070.2
51.42	11.06	5.35	984.9	1070.4
51.43	11.06	5.35	985.0	1070.0
51.44	11.06	5.35	985.0	1069.5
51.45	11.07	5.36	984.8	1069.6
51.46	11.05	5.35	984.7	1069.6
51.47	11.07	5.35	984.6	1070.2
51.48	11.06	5.35	984.7	1069.8
51.49	11.07	5.35	984.6	1069.2
51.5	11.06	5.36	984.7	1069.3
51.51	11.06	5.35	984.6	1069.7
51.52	11.06	5.35	984.4	1069.9
51.53	11.07	5.35	984.9	1069.4
51.54	11.06	5.35	984.9	1069.0
51.55	11.06	5.35	984.6	1070.0
51.56	11.06	5.35	984.9	1069.8
51.57	11.06	5.36	984.5	1069.4
51.58	11.07	5.35	984.8	1069.1
51.59	11.07	5.35	984.7	1069.6
51.6	11.04	5.35	984.7	1069.2
51.61	11.06	5.35	984.7	1068.8
51.62	11.06	5.35	984.6	1068.9
51.63	11.06	5.35	984.8	1069.3
51.64	11.05	5.35	984.6	1069.2
51.65	11.06	5.35	984.6	1069.3
51.66	11.07	5.35	984.7	1069.4
51.67	11.06	5.36	984.9	1069.4
51.68	11.05	5.35	984.6	1069.1
51.69	11.06	5.35	984.6	1069.4
51.7	11.06	5.35	984.7	1069.4
51.71	11.06	5.35	984.6	1068.7
51.72	11.07	5.35	984.9	1069.4
51.73	11.06	5.35	984.9	1069.6
51.74	11.07	5.35	984.8	1069.0
51.75	11.06	5.35	984.7	1069.0
51.76	11.06	5.35	984.7	1069.0
51.77	11.07	5.35	984.6	1069.4
51.78	11.07	5.35	984.7	1069.3
51.79	11.06	5.35	984.6	1068.8
51.8	11.07	5.35	984.8	1068.7
51.81	11.06	5.35	984.7	1069.4
51.82	11.07	5.35	984.7	1069.1
51.83	11.06	5.35	984.6	1069.2
51.84	11.07	5.35	984.6	1068.9
51.85	11.06	5.35	984.7	1069.6
51.86	11.07	5.35	984.6	1069.1
51.87	11.06	5.35	984.5	1069.5
51.88	11.06	5.35	984.4	1069.5
51.89	11.06	5.35	984.6	1069.2
51.9	11.06	5.35	984.5	1069.4
51.91	11.06	5.35	984.7	1069.7
51.92	11.06	5.35	984.3	1069.2
51.93	11.06	5.35	984.6	1069.1
51.94	11.06	5.35	984.5	1069.7
51.95	11.06	5.35	984.8	1069.2
51.96	11.06	5.35	984.4	1068.9
51.97	11.06	5.35	985.0	1068.5
51.98	11.06	5.35	984.8	1069.0
51.99	11.06	5.35	984.7	1068.8
52.0	11.06	5.35	984.6	1068.8
52.01	11.06	5.35	984.5	1068.2
52.02	11.07	5.35	984.6	1068.2
52.03	11.07	5.35	984.5	1069.3
52.04	11.06	5.35	984.6	1068.7
52.05	11.06	5.35	984.6	1068.9
52.06	11.05	5.34	984.5	1068.3
52.07	11.06	5.35	984.6	1069.0
52.08	11.05	5.35	984.4	1068.8
52.09	11.07	5.35	984.3	1069.0
52.1	11.06	5.35	984.4	1068.0
52.11	11.07	5.35	984.4	1068.2
52.12	11.06	5.35	984.5	1068.1
52.13	11.06	5.35	984.4	1068.5
52.14	11.06	5.35	984.3	1068.2
52.15	11.06	5.35	984.5	1068.6
52.16	11.06	5.35	984.4	1068.5
52.17	11.06	5.35	984.6	1068.6
52.18	11.05	5.35	984.2	1068.7
52.19	11.06	5.35	984.3	1068.1
52.2	11.05	5.35	984.4	1068.3
52.21	11.06	5.35	984.4	1068.5
52.22	11.05	5.35	984.4	1068.1
52.23	11.07	5.35	984.3	1067.7
52.24	11.06	5.35	984.4	1068.6
52.25	11.07	5.35	984.4	1068.4
52.26	11.05	5.35	984.4	1068.1
52.27	11.06	5.34	984.3	1067.3
52.28	11.06	5.35	984.2	1068.5
52.29	11.06	5.35	984.5	1068.0
52.3	11.06	5.35	984.4	1068.2
52.31	11.07	5.35	984.4	1067.8
52.32	11.05	5.34	984.5	1068.1
52.33	11.06	5.35	984.4	1068.0
52.34	11.06	5.35	984.5	1068.2
52.35	11.06	5.35	984.4	1067.9
52.36	11.06	5.35	984.1	1067.9
52.37	11.05	5.34	984.4	1068.0
52.38	11.05	5.34	984.5	1067.6
52.39	11.06	5.35	984.5	1067.7
52.4	11.06	5.35	984.4	1066.9
52.41	11.06	5.35	984.5	1067.7
52.42	11.06	5.35	984.2	1067.6
52.43	11.05	5.34	984.4	1067.6
52.44	11.06	5.35	984.3	1067.4
52.45	11.06	5.35	984.3	1067.5
52.46	11.07	5.35	984.2	1067.9
52.47	11.06	5.35	984.2	1068.0
52.48	11.06	5.35	984.1	1067.1
52.49	11.06	5.35	984.2	1066.9
52.5	11.06	5.34	984.1	1068.1
52.51	11.05	5.34	984.3	1067.6
52.52	11.07	5.35	984.0	1067.9
52.53	11.05	5.34	984.1	1068.0
52.54	11.06	5.34	983.9	1067.7
52.55	11.05	5.35	983.9	1067.8
52.56	11.06	5.35	984.1	1067.9
52.57	11.06	5.35	984.0	1067.6
52.58	11.07	5.34	984.2	1066.9
52.59	11.05	5.35	984.0	1067.9
52.6	11.06	5.35	984.3	1067.3
52.61	11.05	5.35	984.0	1067.2
52.62	11.06	5.35	983.8	1067.3
52.63	11.06	5.35	983.8	1067.6
52.64	11.06	5.35	983.8	1067.2
52.65	11.06	5.35	984.0	1067.3
52.66	11.06	5.35	983.9	1066.5
52.67	11.05	5.34	984.0	1067.4
52.68	11.06	5.35	984.2	1067.6
52.69	11.05	5.34	984.0	1067.5
52.7	11.06	5.35	984.0	1066.8
52.71	11.05	5.34	984.0	1067.1
52.72	11.06	5.34	983.7	1067.1
52.73	11.05	5.34	984.0	1068.2
52.74	11.06	5.35	983.6	1067.2
52.75	11.05	5.34	983.7	1066.7
52.76	11.06	5.34	983.8	1067.5
52.77	11.05	5.34	983.9	1067.2
52.78	11.06	5.35	983.9	1067.3
52.79	11.06	5.34	983.7	1066.7
52.8	11.06	5.35	983.8	1067.2
52.81	11.06	5.35	983.8	1067.8
52.82	11.06	5.35	983.8	1067.2
52.83	11.07	5.35	983.8	1067.8
52.84	11.05	5.34	983.7	1066.8
52.85	11.07	5.35	984.0	1067.4
52.86	11.05	5.34	983.8	1067.3
52.87	11.06	5.34	983.6	1067.3
52.88	11.06	5.35	983.8	1066.5
52.89	11.07	5.35	983.7	1067.4
52.9	11.05	5.34	984.0	1066.9
52.91	11.06	5.35	983.7	1067.0
52.92	11.05	5.35	984.0	1066.3
52.93	11.07	5.35	983.7	1067.0
52.94	11.05	5.34	983.6	1067.1
52.95	11.07	5.34	983.8	1067.2
52.96	11.07	5.35	983.7	1067.0
52.97	11.07	5.35	984.0	1066.8
52.98	11.07	5.35	983.8	1066.8
52.99	11.06	5.34	983.9	1066.9
53.0	11.07	5.35	983.9	1066.8
53.01	11.06	5.34	983.8	1066.9
53.02	11.05	5.34	983.8	1066.8
53.03	11.08	5.35	984.1	1066.6
53.04	11.05	5.34	984.1	1066.7
53.05	11.07	5.35	983.9	1066.2
53.06	11.05	5.34	983.6	1066.8
53.07	11.06	5.35	983.7	1067.0
53.08	11.07	5.35	983.6	1066.6
53.09	11.06	5.34	983.6	1066.9
53.1	11.07	5.34	983.5	1066.6
53.11	11.06	5.34	983.6	1066.8
53.12	11.07	5.35	983.6	1066.6
53.13	11.05	5.34	983.6	1066.2
53.14	11.07	5.35	983.6	1066.2
53.15	11.05	5.34	983.6	1066.5
53.16	11.06	5.35	983.5	1066.6
53.17	11.07	5.35	983.6	1066.5
53.18	11.05	5.34	983.6	1065.8
53.19	11.07	5.35	983.8	1066.4
53.2	11.06	5.34	983.4	1066.3
53.21	11.06	5.35	983.6	1066.4
53.22	11.06	5.34	983.7	1066.2
53.23	11.05	5.34	983.7	1066.5
53.24	11.07	5.35	983.8	1066.7
53.25	11.05	5.35	983.8	1066.0
53.26	11.07	5.34	983.9	1066.2
53.27	11.06	5.34	983.8	1066.0
53.28	11.06	5.34	983.8	1066.3
53.29	11.06	5.34	983.7	1066.7
53.3	11.08	5.35	983.6	1066.7
53.31	11.07	5.35	983.6	1065.9
53.32	11.07	5.34	983.6	1066.3
53.33	11.06	5.34	983.5	1066.3
53.34	11.06	5.34	983.6	1066.5
53.35	11.05	5.34	983.7	1066.3
53.36	11.06	5.34	983.5	1066.2
53.37	11.06	5.34	983.5	1066.4
53.38	11.06	5.34	983.6	1066.6
53.39	11.05	5.34	983.8	1066.5
53.4	11.06	5.34	983.5	1065.6
53.41	11.05	5.34	983.4	1066.3
53.42	11.06	5.34	983.4	1065.9
53.43	11.06	5.34	983.5	1066.3
53.44	11.06	5.34	983.6	1065.6
53.45	11.06	5.34	983.6	1066.1
53.46	11.06	5.34	983.6	1066.2
53.47	11.06	5.34	983.5	1066.3
53.48	11.07	5.35	983.5	1066.0
53.49	11.06	5.34	983.6	1065.6
53.5	11.06	5.34	983.6	1065.9
53.51	11.06	5.34	983.5	1066.1
53.52	11.05	5.34	983.4	1066.3
53.53	11.06	5.34	983.6	1065.9
53.54	11.05	5.34	983.6	1065.9
53.55	11.07	5.34	983.4	1065.8
53.56	11.05	5.34	983.6	1066.1
53.57	11.06	5.34	983.6	1065.6
53.58	11.05	5.34	983.4	1065.9
53.59	11.06	5.34	983.5	1065.6
53.6	11.05	5.34	983.4	1065.7
53.61	11.06	5.34	983.6	1065.1
53.62	11.06	5.34	983.3	1065.5
53.63	11.06	5.34	983.5	1066.0
53.64	11.06	5.34	983.3	1065.8
53.65	11.06	5.34	983.5	1065.7
53.66	11.06	5.34	983.6	1065.0
53.67	11.06	5.34	983.3	1065.4
53.68	11.06	5.34	983.4	1065.2
53.69	11.07	5.34	983.8	1065.4
53.7	11.06	5.34	983.5	1065.0
53.71	11.06	5.34	983.5	1065.7
53.72	11.06	5.34	983.2	1065.4
53.73	11.07	5.34	983.5	1065.8
53.74	11.06	5.34	983.2	1065.1
53.75	11.06	5.34	983.3	1065.4
53.76	11.05	5.34	983.3	1065.3
53.77	11.05	5.34	983.2	1065.2
53.78	11.06	5.34	983.2	1065.2
53.79	11.06	5.35	982.8	1064.5
53.8	11.06	5.34	983.0	1065.3
53.81	11.07	5.34	983.2	1065.1
53.82	11.06	5.34	983.0	1065.0
53.83	11.05	5.34	983.2	1064.8
53.84	11.07	5.34	982.9	1065.4
53.85	11.05	5.34	982.9	1065.1
53.86	11.07	5.34	983.0	1065.0
53.87	11.06	5.34	982.8	1064.4
53.88	11.06	5.34	983.0	1065.4
53.89	11.06	5.34	983.0	1064.8
53.9	11.06	5.34	983.0	1065.3
53.91	11.06	5.34	983.0	1065.0
53.92	11.06	5.34	983.0	1064.9
53.93	11.05	5.34	982.9	1065.5
53.94	11.06	5.34	982.9	1065.0
53.95	11.05	5.34	983.0	1065.0
53.96	11.06	5.34	983.1	1064.7
53.97	11.07	5.35	982.9	1065.3
53.98	11.06	5.34	983.1	1065.3
53.99	11.05	5.34	983.0	1065.3
54.0	11.06	5.34	982.8	1065.1
54.01	11.06	5.34	983.0	1065.4
54.02	11.06	5.34	982.9	1065.4
54.03	11.06	5.34	982.8	1065.0
54.04	11.07	5.34	983.0	1064.9
54.05	11.06	5.34	982.8	1064.8
54.06	11.06	5.34	982.7	1065.2
54.07	11.06	5.34	982.5	1065.4
54.08	11.07	5.34	982.5	1065.2
54.09	11.06	5.34	982.8	1064.8
54.1	11.06	5.34	982.8	1065.5
54.11	11.07	5.34	982.8	1065.0
54.12	11.05	5.34	983.0	1065.2
54.13	11.06	5.34	982.9	1064.3
54.14	11.06	5.34	982.8	1064.5
54.15	11.06	5.34	982.8	1064.8
54.16	11.06	5.34	982.9	1064.6
54.17	11.05	5.34	982.9	1064.7
54.18	11.05	5.34	982.5	1064.8
54.19	11.06	5.34	982.8	1064.7
54.2	11.07	5.34	982.8	1064.8
54.21	11.07	5.34	982.8	1065.2
54.22	11.05	5.34	982.9	1064.2
54.23	11.06	5.34	982.8	1065.0
54.24	11.04	5.34	982.6	1064.3
54.25	11.05	5.34	982.6	1064.7
54.26	11.06	5.34	982.7	1064.1
54.27	11.06	5.34	982.7	1064.5
54.28	11.05	5.34	982.8	1064.5
54.29	11.07	5.34	982.6	1064.6
54.3	11.06	5.34	982.6	1064.5
54.31	11.06	5.34	982.7	1064.6
54.32	11.07	5.34	982.9	1064.7
54.33	11.06	5.34	982.6	1064.1
54.34	11.05	5.34	982.7	1064.9
54.35	11.06	5.34	982.8	1064.1
54.36	11.05	5.34	982.6	1064.7
54.37	11.06	5.34	982.7	1064.7
54.38	11.06	5.34	982.6	1064.6
54.39	11.06	5.34	982.8	1064.0
54.4	11.06	5.34	982.7	1064.5
54.41	11.06	5.34	982.8	1064.7
54.42	11.06	5.34	982.7	1064.7
54.43	11.06	5.34	982.7	1064.5
54.44	11.06	5.34	982.8	1064.4
54.45	11.06	5.34	982.8	1064.4
54.46	11.06	5.34	982.7	1064.6
54.47	11.06	5.34	982.6	1064.6
54.48	11.06	5.34	982.9	1063.7
54.49	11.06	5.34	982.8	1064.6
54.5	11.07	5.34	982.6	1064.5
54.51	11.06	5.34	982.5	1064.8
54.52	11.05	5.34	982.8	1064.0
54.53	11.06	5.34	982.8	1064.2
54.54	11.06	5.34	982.5	1064.3
54.55	11.06	5.34	982.6	1064.1
54.56	11.07	5.34	982.7	1063.7
54.57	11.05	5.34	982.7	1064.1
54.58	11.06	5.34	982.6	1064.2
54.59	11.06	5.34	982.6	1064.2
54.6	11.06	5.34	982.7	1064.6
54.61	11.06	5.34	982.7	1063.8
54.62	11.06	5.34	982.6	1064.2
54.63	11.05	5.33	982.5	1064.0
54.64	11.07	5.34	982.4	1063.9
54.65	11.05	5.33	982.3	1063.7
54.66	11.06	5.34	982.6	1064.2
54.67	11.07	5.34	982.4	1064.1
54.68	11.07	5.34	982.5	1064.0
54.69	11.06	5.34	982.6	1063.8
54.7	11.06	5.34	982.3	1064.2
54.71	11.06	5.34	982.6	1064.3
54.72	11.06	5.34	982.3	1064.0
54.73	11.06	5.34	982.5	1064.2
54.74	11.06	5.34	982.5	1063.5
54.75	11.05	5.34	982.3	1063.9
54.76	11.05	5.34	982.3	1063.7
54.77	11.07	5.34	982.2	1064.2
54.78	11.06	5.34	982.4	1063.3
54.79	11.06	5.34	982.3	1063.8
54.8	11.05	5.33	982.4	1063.3
54.81	11.06	5.33	982.5	1063.9
54.82	11.07	5.34	982.4	1063.1
54.83	11.05	5.34	982.4	1063.4
54.84	11.06	5.34	982.4	1063.7
54.85	11.07	5.34	982.2	1063.4
54.86	11.06	5.33	982.3	1063.4
54.87	11.07	5.34	982.0	1063.4
54.88	11.05	5.33	982.4	1063.8
54.89	11.05	5.34	982.2	1063.5
54.9	11.06	5.34	982.1	1063.4
54.91	11.07	5.34	982.2	1063.4
54.92	11.06	5.34	982.2	1063.7
54.93	11.05	5.33	982.1	1063.2
54.94	11.04	5.33	982.0	1063.1
54.95	11.05	5.33	981.9	1062.9
54.96	11.05	5.34	982.0	1063.7
54.97	11.06	5.34	982.2	1063.6
54.98	11.05	5.34	982.0	1063.3
54.99	11.05	5.33	982.1	1063.0
55.0	11.06	5.34	982.1	1062.8
55.01	11.06	5.34	982.2	1063.4
55.02	11.06	5.34	982.0	1063.2
55.03	11.06	5.33	982.0	1063.2
55.04	11.06	5.34	982.2	1062.4
55.05	11.06	5.34	982.1	1063.3
55.06	11.06	5.34	981.9	1063.0
55.07	11.07	5.34	982.2	1063.2
55.08	11.06	5.34	982.0	1062.6
55.09	11.06	5.34	982.2	1062.9
55.1	11.05	5.34	982.0	1063.2
55.11	11.07	5.34	982.2	1063.0
55.12	11.06	5.33	982.1	1062.7
55.13	11.07	5.34	982.1	1062.6
55.14	11.06	5.34	982.0	1062.8
55.15	11.08	5.34	982.0	1062.9
55.16	11.06	5.34	982.0	1063.0
55.17	11.06	5.34	981.8	1062.4
55.18	11.06	5.33	981.7	1063.1
55.19	11.05	5.33	981.9	1063.0
55.2	11.07	5.34	981.8	1062.7
55.21	11.06	5.34	981.9	1062.6
55.22	11.06	5.34	981.9	1063.0
55.23	11.07	5.34	981.9	1063.1
55.24	11.05	5.33	982.0	1062.8
55.25	11.06	5.34	981.7	1062.4
55.26	11.07	5.34	982.0	1062.2
55.27	11.06	5.34	981.6	1062.7
55.28	11.07	5.34	981.7	1062.8
55.29	11.05	5.33	981.8	1062.6
55.3	11.07	5.34	981.7	1061.9
55.31	11.06	5.33	982.0	1062.9
55.32	11.06	5.34	981.7	1062.7
55.33	11.06	5.33	981.8	1063.0
55.34	11.08	5.34	981.7	1062.0
55.35	11.05	5.33	981.7	1062.4
55.36	11.07	5.34	981.9	1062.4
55.37	11.05	5.33	981.5	1062.0
55.38	11.06	5.34	981.7	1062.4
55.39	11.07	5.34	981.7	1062.3
55.4	11.06	5.34	981.6	1062.8
55.41	11.05	5.34	981.9	1062.3
55.42	11.06	5.33	981.5	1062.1
55.43	11.05	5.33	982.0	1062.1
55.44	11.06	5.34	981.5	1063.0
55.45	11.06	5.34	981.4	1062.5
55.46	11.06	5.33	981.5	1062.6
55.47	11.05	5.33	981.9	1061.8
55.48	11.06	5.33	981.4	1062.6
55.49	11.06	5.34	981.6	1062.4
55.5	11.06	5.33	981.4	1062.4
55.51	11.05	5.33	981.6	1061.7
55.52	11.06	5.33	981.5	1062.3
55.53	11.06	5.33	981.6	1061.7
55.54	11.06	5.34	981.5	1062.1
55.55	11.07	5.34	981.4	1062.5
55.56	11.06	5.33	981.5	1062.2
55.57	11.06	5.34	981.5	1062.3
55.58	11.06	5.33	981.3	1062.0
55.59	11.06	5.33	981.3	1062.3
55.6	11.06	5.33	981.4	1061.6
55.61	11.06	5.33	981.5	1062.4
55.62	11.06	5.33	981.7	1062.4
55.63	11.07	5.34	981.6	1062.3
55.64	11.05	5.33	981.3	1061.9
55.65	11.06	5.33	981.5	1062.1
55.66	11.06	5.34	981.6	1062.3
55.67	11.06	5.33	981.4	1062.4
55.68	11.06	5.33	981.2	1061.2
55.69	11.06	5.33	981.3	1061.3
55.7	11.06	5.33	981.4	1061.9
55.71	11.06	5.33	981.6	1061.6
55.72	11.05	5.33	981.4	1062.4
55.73	11.07	5.34	981.6	1061.6
55.74	11.05	5.33	981.2	1062.4
55.75	11.06	5.33	981.4	1062.1
55.76	11.05	5.33	981.2	1061.2
55.77	11.06	5.33	981.5	1061.1
55.78	11.06	5.33	981.2	1062.4
55.79	11.07	5.33	981.4	1061.9
55.8	11.06	5.33	981.2	1061.7
55.81	11.06	5.33	981.5	1061.8
55.82	11.06	5.33	981.3	1061.7
55.83	11.07	5.34	981.4	1062.0
55.84	11.05	5.33	981.3	1061.9
55.85	11.06	5.33	981.5	1061.9
55.86	11.06	5.33	981.2	1060.7
55.87	11.06	5.33	981.2	1061.7
55.88	11.06	5.33	981.3	1061.5
55.89	11.06	5.33	981.4	1060.7
55.9	11.06	5.33	981.5	1060.7
55.91	11.07	5.33	981.3	1062.0
55.92	11.06	5.33	981.4	1061.9
55.93	11.07	5.34	981.4	1061.8
55.94	11.06	5.33	981.4	1061.3
55.95	11.05	5.33	981.5	1061.3
55.96	11.06	5.33	981.2	1061.6
55.97	11.06	5.33	981.5	1061.4
55.98	11.06	5.33	981.4	1061.4
55.99	11.06	5.33	981.3	1061.3
56.0	11.06	5.33	981.2	1062.0
56.01	11.06	5.33	981.1	1062.2
56.02	11.06	5.33	981.2	1061.5
56.03	11.06	5.33	981.2	1061.2
56.04	11.06	5.33	981.3	1061.8
56.05	11.06	5.33	981.3	1061.3
56.06	11.07	5.33	981.4	1061.3
56.07	11.06	5.33	981.2	1061.2
56.08	11.05	5.33	981.1	1061.5
56.09	11.06	5.33	981.3	1061.2
56.1	11.06	5.33	981.3	1061.2
56.11	11.06	5.34	981.1	1061.1
56.12	11.07	5.33	981.0	1061.1
56.13	11.05	5.33	981.1	1061.4
56.14	11.07	5.33	981.3	1060.8
56.15	11.05	5.33	981.1	1061.2
56.16	11.05	5.33	981.3	1059.8
56.17	11.06	5.33	981.1	1062.0
56.18	11.05	5.33	981.2	1061.1
56.19	11.06	5.33	981.4	1061.4
56.2	11.06	5.33	981.1	1060.9
56.21	11.05	5.33	981.2	1061.1
56.22	11.06	5.33	981.1	1061.8
56.23	11.05	5.33	981.4	1061.2
56.24	11.06	5.33	981.1	1060.3
56.25	11.07	5.34	981.3	1060.6
56.26	11.06	5.33	981.2	1061.1
56.27	11.07	5.34	981.3	1061.0
56.28	11.06	5.33	981.2	1060.8
56.29	11.06	5.33	981.1	1061.3
56.3	11.06	5.33	981.2	1061.1
56.31	11.06	5.33	981.1	1061.0
56.32	11.05	5.33	981.2	1061.2
56.33	11.06	5.33	981.2	1060.5
56.34	11.05	5.33	981.2	1061.2
56.35	11.06	5.33	981.2	1060.8
56.36	11.06	5.33	981.3	1060.8
56.37	11.07	5.33	981.3	1060.1
56.38	11.05	5.33	981.2	1060.6
56.39	11.06	5.33	981.1	1061.3
56.4	11.05	5.33	981.2	1061.1
56.41	11.06	5.33	981.3	1060.9
56.42	11.07	5.33	981.1	1060.5
56.43	11.05	5.33	981.2	1060.6
56.44	11.05	5.33	981.3	1060.7
56.45	11.07	5.33	981.2	1061.0
56.46	11.05	5.33	981.2	1060.5
56.47	11.07	5.33	981.0	1061.0
56.48	11.06	5.33	981.3	1061.2
56.49	11.06	5.33	981.2	1061.0
56.5	11.05	5.33	981.4	1060.6
56.51	11.05	5.33	981.1	1060.9
56.52	11.05	5.33	981.3	1061.2
56.53	11.07	5.34	981.6	1061.1
56.54	11.06	5.33	981.3	1060.7
56.55	11.06	5.33	981.2	1060.9
56.56	11.07	5.33	981.2	1061.0
56.57	11.05	5.33	981.2	1060.4
56.58	11.07	5.33	981.0	1060.2
56.59	11.07	5.33	981.2	1060.3
56.6	11.07	5.33	981.0	1060.7
56.61	11.06	5.33	981.0	1060.6
56.62	11.06	5.33	980.9	1060.8
56.63	11.05	5.33	981.0	1060.0
56.64	11.06	5.33	981.2	1060.7
56.65	11.06	5.33	981.1	1060.6
56.66	11.06	5.33	981.1	1060.8
56.67	11.06	5.33	981.4	1060.1
56.68	11.07	5.33	980.9	1060.1
56.69	11.05	5.33	981.1	1060.4
56.7	11.06	5.33	981.3	1060.3
56.71	11.06	5.33	981.2	1060.0
56.72	11.06	5.33	981.0	1059.6
56.73	11.06	5.33	980.9	1061.0
56.74	11.06	5.33	981.0	1060.3
56.75	11.06	5.33	980.9	1060.6
56.76	11.07	5.33	981.0	1059.9
56.77	11.05	5.33	981.3	1060.2
56.78	11.06	5.33	981.2	1060.5
56.79	11.06	5.33	981.3	1060.7
56.8	11.06	5.33	981.2	1060.3
56.81	11.06	5.33	981.4	1060.1
56.82	11.06	5.33	981.1	1060.1
56.83	11.06	5.33	981.1	1060.3
56.84	11.07	5.33	981.2	1060.6
56.85	11.06	5.33	981.0	1059.7
56.86	11.05	5.33	981.1	1060.3
56.87	11.05	5.33	981.5	1060.3
56.88	11.07	5.33	981.0	1059.6
56.89	11.06	5.33	980.9	1060.0
56.9	11.05	5.33	980.8	1060.0
56.91	11.05	5.33	981.2	1059.5
56.92	11.07	5.33	981.0	1060.0
56.93	11.06	5.33	980.9	1059.3
56.94	11.06	5.33	980.8	1059.7
56.95	11.05	5.32	980.9	1059.8
56.96	11.05	5.33	980.9	1059.8
56.97	11.06	5.33	981.0	1059.3
56.98	11.05	5.32	980.8	1059.4
56.99	11.06	5.33	980.9	1060.1
57.0	11.05	5.33	981.1	1059.6
57.01	11.05	5.33	980.9	1059.2
57.02	11.06	5.33	981.2	1058.9
57.03	11.06	5.33	980.8	1059.6
57.04	11.07	5.33	981.1	1059.9
57.05	11.06	5.33	980.9	1059.4
57.06	11.05	5.33	980.9	1058.8
57.07	11.06	5.33	981.0	1059.0
57.08	11.05	5.33	981.0	1059.6
57.09	11.07	5.33	980.9	1059.4
57.1	11.06	5.33	981.0	1059.0
57.11	11.06	5.33	981.0	1059.1
57.12	11.06	5.33	980.9	1059.9
57.13	11.06	5.32	980.9	1059.2
57.14	11.05	5.33	981.0	1060.0
57.15	11.06	5.33	980.8	1058.9
57.16	11.05	5.33	980.8	1059.6
57.17	11.06	5.33	980.7	1059.0
57.18	11.05	5.32	980.8	1059.3
57.19	11.07	5.33	981.0	1058.9
57.2	11.05	5.33	981.1	1059.7
57.21	11.05	5.32	980.9	1059.7
57.22	11.05	5.33	980.8	1059.3
57.23	11.06	5.33	980.9	1059.4
57.24	11.05	5.33	980.7	1059.3
57.25	11.05	5.33	981.1	1059.8
57.26	11.04	5.32	981.0	1059.2
57.27	11.07	5.33	980.8	1058.6
57.28	11.06	5.33	981.0	1058.5
57.29	11.06	5.33	980.8	1059.3
57.3	11.05	5.33	980.9	1059.0
57.31	11.07	5.33	981.0	1059.2
57.32	11.06	5.33	980.7	1058.5
57.33	11.06	5.33	980.7	1059.3
57.34	11.06	5.33	980.7	1059.1
57.35	11.06	5.33	980.6	1058.9
57.36	11.07	5.33	980.5	1058.6
57.37	11.06	5.33	980.8	1058.6
57.38	11.06	5.32	980.7	1058.8
57.39	11.05	5.32	980.7	1058.5
57.4	11.07	5.33	980.9	1058.3
57.41	11.06	5.33	980.6	1058.5
57.42	11.07	5.33	980.7	1059.2
57.43	11.05	5.32	980.5	1058.6
57.44	11.06	5.32	980.8	1059.1
57.45	11.06	5.33	980.7	1058.8
57.46	11.06	5.33	980.6	1059.1
57.47	11.06	5.33	980.5	1058.9
57.48	11.05	5.32	980.4	1058.8
57.49	11.05	5.33	980.3	1058.6
57.5	11.07	5.33	980.6	1059.1
57.51	11.05	5.33	980.7	1059.1
57.52	11.06	5.32	980.8	1058.8
57.53	11.05	5.33	980.8	1058.8
57.54	11.07	5.33	980.5	1059.2
57.55	11.06	5.33	980.6	1059.2
57.56	11.05	5.32	980.7	1058.4
57.57	11.05	5.33	980.5	1058.8
57.58	11.06	5.33	980.6	1058.1
57.59	11.07	5.33	980.3	1058.8
57.6	11.06	5.32	980.4	1059.0
57.61	11.05	5.32	980.4	1058.6
57.62	11.05	5.32	980.5	1058.3
57.63	11.05	5.33	980.3	1058.7
57.64	11.08	5.33	980.4	1058.8
57.65	11.06	5.33	980.7	1058.9
57.66	11.05	5.33	980.6	1058.3
57.67	11.05	5.32	981.1	1058.5
57.68	11.06	5.32	980.7	1059.1
57.69	11.06	5.32	980.3	1058.4
57.7	11.06	5.33	980.6	1058.0
57.71	11.05	5.32	980.6	1058.5
57.72	11.06	5.33	980.4	1059.1
57.73	11.06	5.33	980.4	1058.3
57.74	11.06	5.33	980.3	1058.0
57.75	11.06	5.32	980.4	1058.1
57.76	11.05	5.32	980.5	1058.6
57.77	11.07	5.33	980.5	1058.2
57.78	11.06	5.33	980.3	1058.4
57.79	11.06	5.32	980.5	1057.8
57.8	11.05	5.32	980.2	1058.1
57.81	11.06	5.32	980.3	1058.4
57.82	11.05	5.33	980.3	1058.8
57.83	11.07	5.33	980.2	1058.6
57.84	11.06	5.32	980.4	1057.9
57.85	11.07	5.32	980.1	1058.6
57.86	11.05	5.32	980.5	1058.6
57.87	11.06	5.33	980.1	1058.6
57.88	11.06	5.33	980.4	1058.1
57.89	11.06	5.32	980.4	1058.6
57.9	11.06	5.33	980.3	1058.1
57.91	11.06	5.32	980.4	1058.1
57.92	11.06	5.33	980.4	1057.1
57.93	11.06	5.33	980.4	1058.2
57.94	11.05	5.32	980.6	1058.4
57.95	11.05	5.32	980.2	1058.7
57.96	11.06	5.33	980.5	1058.3
57.97	11.06	5.33	980.4	1058.3
57.98	11.07	5.33	980.3	1058.7
57.99	11.06	5.33	980.1	1058.3
58.0	11.05	5.32	980.5	1058.9
58.01	11.06	5.33	980.5	1057.8
58.02	11.06	5.32	980.1	1058.2
58.03	11.05	5.32	980.2	1057.9
58.04	11.06	5.32	980.2	1058.7
58.05	11.05	5.33	980.2	1057.6
58.06	11.06	5.33	980.3	1058.4
58.07	11.05	5.32	980.0	1058.6
58.08	11.06	5.33	980.0	1058.6
58.09	11.06	5.32	980.1	1058.3
58.1	11.06	5.32	980.2	1058.3
58.11	11.06	5.33	980.0	1058.8
58.12	11.07	5.32	980.0	1057.7
58.13	11.06	5.33	980.0	1057.9
58.14	11.06	5.33	980.2	1057.6
58.15	11.05	5.32	980.0	1058.1
58.16	11.07	5.33	980.1	1058.0
58.17	11.06	5.33	980.1	1057.9
58.18	11.07	5.32	979.8	1057.7
58.19	11.05	5.32	980.1	1058.1
58.2	11.06	5.32	980.0	1058.0
58.21	11.06	5.33	980.1	1058.1
58.22	11.06	5.33	980.0	1057.3
58.23	11.05	5.32	980.1	1057.4
58.24	11.07	5.33	980.1	1057.6
58.25	11.07	5.33	979.6	1058.0
58.26	11.06	5.33	980.1	1057.9
58.27	11.05	5.32	979.9	1057.2
58.28	11.06	5.32	979.9	1057.7
58.29	11.05	5.32	979.9	1057.7
58.3	11.07	5.33	980.0	1057.5
58.31	11.05	5.33	980.0	1057.2
58.32	11.06	5.32	980.2	1057.4
58.33	11.05	5.32	979.8	1057.5
58.34	11.07	5.33	979.8	1057.5
58.35	11.06	5.32	980.0	1057.6
58.36	11.05	5.32	980.0	1056.9
58.37	11.06	5.33	980.0	1057.2
58.38	11.06	5.32	980.1	1057.9
58.39	11.06	5.32	980.1	1057.2
58.4	11.06	5.32	980.3	1057.2
58.41	11.06	5.32	980.2	1057.8
58.42	11.07	5.33	979.8	1057.3
58.43	11.07	5.32	980.1	1057.0
58.44	11.05	5.32	979.9	1057.4
58.45	11.06	5.33	979.9	1057.1
58.46	11.06	5.33	979.8	1057.5
58.47	11.06	5.32	979.9	1057.4
58.48	11.05	5.32	979.8	1057.3
58.49	11.06	5.32	980.0	1056.6
58.5	11.06	5.33	980.1	1056.9
58.51	11.07	5.32	979.8	1056.9
58.52	11.06	5.32	980.0	1057.1
58.53	11.06	5.32	980.1	1056.5
58.54	11.06	5.32	980.0	1057.0
58.55	11.07	5.32	980.2	1056.6
58.56	11.06	5.32	979.6	1057.1
58.57	11.07	5.32	979.9	1057.6
58.58	11.05	5.32	980.1	1057.0
58.59	11.05	5.32	980.1	1057.1
58.6	11.05	5.32	979.9	1056.8
58.61	11.07	5.32	979.9	1056.9
58.62	11.06	5.32	979.9	1056.4
58.63	11.06	5.32	979.7	1057.0
58.64	11.05	5.32	979.9	1057.0
58.65	11.07	5.33	980.0	1057.2
58.66	11.06	5.32	979.8	1056.7
58.67	11.05	5.32	980.0	1056.9
58.68	11.07	5.32	979.9	1057.2
58.69	11.06	5.32	979.9	1056.8
58.7	11.06	5.32	979.9	1056.8
58.71	11.06	5.32	979.6	1057.2
58.72	11.06	5.32	979.5	1057.4
58.73	11.05	5.32	979.9	1057.5
58.74	11.06	5.32	979.8	1056.8
58.75	11.06	5.33	979.9	1056.1
58.76	11.05	5.32	979.8	1057.1
58.77	11.06	5.32	979.7	1056.6
58.78	11.07	5.33	979.8	1057.5
58.79	11.06	5.32	979.8	1056.3
58.8	11.06	5.32	979.7	1056.8
58.81	11.07	5.32	979.7	1056.8
58.82	11.06	5.32	979.6	1056.4
58.83	11.06	5.32	979.6	1056.5
58.84	11.06	5.32	979.8	1056.4
58.85	11.05	5.32	979.7	1056.7
58.86	11.07	5.32	979.8	1056.7
58.87	11.05	5.32	979.7	1056.5
58.88	11.07	5.32	979.8	1056.3
58.89	11.07	5.32	979.9	1056.7
58.9	11.06	5.32	980.0	1057.0
58.91	11.04	5.32	979.8	1057.0
58.92	11.06	5.32	979.8	1056.4
58.93	11.06	5.32	979.8	1057.0
58.94	11.07	5.32	979.8	1056.7
58.95	11.06	5.32	980.1	1056.7
58.96	11.07	5.32	979.8	1056.4
58.97	11.06	5.33	979.9	1056.3
58.98	11.06	5.32	979.9	1056.5
58.99	11.05	5.32	980.0	1056.6
59.0	11.06	5.33	979.9	1056.5
59.01	11.06	5.32	979.9	1055.8
59.02	11.06	5.32	980.0	1056.8
59.03	11.05	5.32	979.6	1056.9
59.04	11.06	5.32	980.0	1056.5
59.05	11.06	5.32	979.8	1056.0
59.06	11.05	5.32	980.2	1057.0
59.07	11.06	5.32	979.7	1056.5
59.08	11.06	5.32	980.2	1056.4
59.09	11.06	5.32	980.0	1056.7
59.1	11.06	5.33	979.8	1056.0
59.11	11.07	5.33	979.9	1056.9
59.12	11.06	5.32	979.7	1056.5
59.13	11.06	5.32	979.8	1056.5
59.14	11.07	5.32	979.7	1055.8
59.15	11.05	5.32	979.7	1056.1
59.16	11.05	5.32	979.8	1056.2
59.17	11.06	5.32	979.9	1056.4
59.18	11.06	5.32	980.1	1056.0
59.19	11.07	5.32	979.8	1056.0
59.2	11.07	5.32	980.0	1056.2
59.21	11.06	5.32	980.0	1056.2
59.22	11.05	5.32	979.9	1056.7
59.23	11.06	5.32	979.8	1055.8
59.24	11.05	5.32	979.8	1056.8
59.25	11.06	5.32	979.9	1056.1
59.26	11.05	5.32	979.8	1056.0
59.27	11.07	5.32	979.7	1055.5
59.28	11.05	5.32	979.7	1056.3
59.29	11.06	5.32	979.8	1056.5
59.3	11.06	5.32	979.7	1056.6
59.31	11.06	5.32	979.4	1055.8
59.32	11.06	5.32	979.4	1055.8
59.33	11.06	5.32	979.5	1055.9
59.34	11.06	5.32	979.3	1055.8
59.35	11.06	5.32	979.7	1056.6
59.36	11.06	5.32	979.6	1056.2
59.37	11.06	5.32	979.6	1056.5
59.38	11.05	5.32	979.8	1056.4
59.39	11.06	5.32	980.0	1056.3
59.4	11.07	5.33	980.0	1055.2
59.41	11.05	5.32	979.8	1056.3
59.42	11.05	5.32	979.6	1056.4
59.43	11.07	5.32	979.7	1056.7
59.44	11.06	5.32	979.7	1056.1
59.45	11.05	5.32	979.8	1055.8
59.46	11.06	5.32	979.6	1056.0
59.47	11.05	5.32	979.6	1056.1
59.48	11.06	5.32	979.5	1055.9
59.49	11.05	5.32	979.8	1055.5
59.5	11.06	5.33	979.8	1055.6
59.51	11.06	5.33	979.5	1055.9
59.52	11.05	5.32	979.5	1056.0
59.53	11.06	5.32	979.5	1055.4
59.54	11.05	5.32	979.6	1056.4
59.55	11.06	5.32	979.5	1055.7
59.56	11.06	5.32	979.7	1055.3
59.57	11.05	5.32	979.5	1055.4
59.58	11.06	5.32	979.5	1055.4
59.59	11.06	5.32	979.3	1055.9
59.6	11.06	5.32	979.5	1055.7
59.61	11.06	5.32	979.1	1055.0
59.62	11.06	5.32	979.5	1054.5
59.63	11.06	5.32	979.6	1055.5
59.64	11.06	5.32	979.7	1055.8
59.65	11.05	5.32	979.7	1055.6
59.66	11.06	5.32	979.7	1054.8
59.67	11.06	5.32	979.6	1055.5
59.68	11.06	5.32	979.7	1055.3
59.69	11.07	5.33	979.7	1055.7
59.7	11.05	5.32	979.5	1055.0
59.71	11.06	5.32	979.4	1054.9
59.72	11.05	5.32	979.8	1056.5
59.73	11.06	5.32	979.5	1055.1
59.74	11.06	5.32	979.8	1055.8
59.75	11.05	5.32	979.5	1055.4
59.76	11.06	5.32	979.7	1056.1
59.77	11.05	5.32	979.7	1055.7
59.78	11.06	5.32	979.4	1056.2
59.79	11.05	5.32	979.7	1055.0
59.8	11.05	5.32	979.4	1055.4
59.81	11.06	5.32	979.7	1055.8
59.82	11.06	5.32	979.5	1055.7
59.83	11.06	5.32	979.7	1055.1
59.84	11.07	5.32	979.6	1055.1
59.85	11.05	5.32	979.3	1055.5
59.86	11.07	5.32	979.3	1055.2
59.87	11.06	5.32	979.5	1055.8
59.88	11.06	5.32	979.9	1055.0
59.89	11.07	5.32	979.7	1055.3
59.9	11.06	5.32	979.7	1055.3
59.91	11.06	5.32	979.3	1055.0
59.92	11.05	5.32	979.8	1054.2
59.93	11.05	5.32	979.8	1055.6
59.94	11.06	5.32	979.4	1055.4
59.95	11.07	5.32	979.7	1055.0
59.96	11.05	5.32	979.5	1054.6
59.97	11.06	5.32	979.7	1055.1
59.98	11.06	5.32	979.7	1055.0
59.98	11.06	5.32	979.7	1055.0
59.99	11.06	5.32	979.7	1055.0
60.0	11.06	5.32	979.7	1055.0
60.01	11.06	5.32	979.7	1055.0
60.02	11.06	5.32	979.7	1055.0
60.03	11.06	5.32	979.7	1055.0
60.04	11.06	5.32	979.7	1055.0
60.05	11.06	5.32	979.7	1055.0
60.06	11.06	5.32	979.7	1055.0
60.07	11.06	5.32	979.7	1055.0
60.08	11.06	5.32	979.7	1055.0
60.09	11.06	5.32	979.7	1055.0
60.1	11.06	5.32	979.7	1055.0
60.11	11.06	5.32	979.7	1055.0
60.12	11.06	5.32	979.7	1055.0
60.13	11.06	5.32	979.7	1055.0
60.14	11.06	5.32	979.7	1055.0
60.15	11.06	5.32	979.7	1055.0
60.16	11.06	5.32	979.7	1055.0
60.17	11.06	5.32	979.7	1055.0
60.18	11.06	5.32	979.7	1055.0
60.19	11.06	5.32	979.7	1055.0
60.2	11.06	5.32	979.7	1055.0
60.21	11.06	5.32	979.7	1055.0
60.22	11.06	5.32	979.7	1055.0
60.23	11.06	5.32	979.7	1055.0
60.24	11.06	5.32	979.7	1055.0
60.25	11.06	5.32	979.7	1055.0
60.26	11.06	5.32	979.7	1055.0
60.27	11.06	5.32	979.7	1055.0
60.28	11.06	5.32	979.7	1055.0
60.29	11.06	5.32	979.7	1055.0
60.3	11.06	5.32	979.7	1055.0
60.31	11.06	5.32	979.7	1055.0
60.32	11.06	5.32	979.7	1055.0
60.33	11.06	5.32	979.7	1055.0
60.34	11.06	5.32	979.7	1055.0
60.35	11.06	5.32	979.7	1055.0
60.36	11.06	5.32	979.7	1055.0
60.37	11.06	5.32	979.7	1055.0
60.38	11.06	5.32	979.7	1055.0
60.39	11.06	5.32	979.7	1055.0
60.4	11.06	5.32	979.7	1055.0
60.41	11.06	5.32	979.7	1055.0
60.42	11.06	5.32	979.7	1055.0
60.43	11.06	5.32	979.7	1055.0
60.44	11.06	5.32	979.7	1055.0
60.45	11.06	5.32	979.7	1055.0
60.46	11.06	5.32	979.7	1055.0
60.47	11.06	5.32	979.7	1055.0
60.48	11.06	5.32	979.7	1055.0
60.49	11.06	5.32	979.7	1055.0
60.5	11.06	5.32	979.7	1055.0
60.51	11.06	5.32	979.7	1055.0
60.52	11.06	5.32	979.7	1055.0
60.53	11.06	5.32	979.7	1055.0
60.54	11.06	5.32	979.7	1055.0
60.55	11.06	5.32	979.7	1055.0
60.56	11.06	5.32	979.7	1055.0
60.57	11.06	5.32	979.7	1055.0
60.58	11.06	5.32	979.7	1055.0
60.59	11.06	5.32	979.7	1055.0
60.6	11.06	5.32	979.7	1055.0
60.61	11.06	5.32	979.7	1055.0
60.62	11.06	5.32	979.7	1055.0
60.63	11.06	5.32	979.7	1055.0
60.64	11.06	5.32	979.7	1055.0
60.65	11.06	5.32	979.7	1055.0
60.66	11.06	5.32	979.7	1055.0
60.67	11.06	5.32	979.7	1055.0
60.68	11.06	5.32	979.7	1055.0
60.69	11.06	5.32	979.7	1055.0
60.7	11.06	5.32	979.7	1055.0
60.71	11.06	5.32	979.7	1055.0
60.72	11.06	5.32	979.7	1055.0
60.73	11.06	5.32	979.7	1055.0
60.74	11.06	5.32	979.7	1055.0
60.75	11.06	5.32	979.7	1055.0
60.76	11.06	5.32	979.7	1055.0
60.77	11.06	5.32	979.7	1055.0
60.78	11.06	5.32	979.7	1055.0
60.79	11.06	5.32	979.7	1055.0
60.8	11.06	5.32	979.7	1055.0
60.81	11.06	5.32	979.7	1055.0
60.82	11.06	5.32	979.7	1055.0
60.83	11.06	5.32	979.7	1055.0
60.84	11.06	5.32	979.7	1055.0
60.85	11.06	5.32	979.7	1055.0
60.86	11.06	5.32	979.7	1055.0
60.87	11.06	5.32	979.7	1055.0
60.88	11.06	5.32	979.7	1055.0
60.89	11.06	5.32	979.7	1055.0
60.9	11.06	5.32	979.7	1055.0
60.91	11.06	5.32	979.7	1055.0
60.92	11.06	5.32	979.7	1055.0
60.93	11.06	5.32	979.7	1055.0
60.94	11.06	5.32	979.7	1055.0
60.95	11.06	5.32	979.7	1055.0
60.96	11.06	5.32	979.7	1055.0
60.97	11.06	5.32	979.7	1055.0
60.98	11.06	5.32	979.7	1055.0
60.99	11.06	5.32	979.7	1055.0
61.0	11.06	5.32	979.7	1055.0