t[s]	U[V]	I[A]	Piro[C]	TC[C]
-0.01	-0.01	-0.01	685.7	649.9
0.0	9.36	15.78	649.9	685.7
0.01	10.57	17.76	649.6	685.6
0.02	10.85	18.19	649.9	685.6
0.03	10.94	18.28	649.6	685.5
0.04	10.98	18.31	649.8	685.6
0.05	10.99	18.3	649.8	685.6
0.06	11.0	18.29	649.7	685.7
0.07	11.03	18.27	649.8	685.6
0.08	11.03	18.26	649.7	685.6
0.09	11.05	18.26	649.7	685.6
0.1	11.05	18.23	649.5	685.5
0.11	11.05	18.21	649.9	685.6
0.12	11.05	18.18	649.7	685.6
0.13	11.06	18.16	649.8	685.6
0.14	11.06	18.15	649.9	685.6
0.15	11.06	18.12	649.8	685.7
0.16	11.05	18.09	649.9	685.7
0.17	11.05	18.07	649.8	685.6
0.18	11.06	18.05	649.8	685.6
0.19	11.06	18.03	649.7	685.6
0.2	11.06	18.02	649.6	685.7
0.21	11.07	18.0	649.7	685.6
0.22	11.06	17.99	649.8	685.6
0.23	11.07	17.96	649.8	685.5
0.24	11.06	17.94	649.8	685.5
0.25	11.06	17.92	649.9	685.5
0.26	11.05	17.89	649.6	685.7
0.27	11.06	17.88	650.0	685.5
0.28	11.05	17.85	650.0	685.6
0.29	11.06	17.84	649.7	685.7
0.3	11.05	17.82	649.6	685.6
0.31	11.06	17.8	649.9	685.5
0.32	11.06	17.79	649.8	685.6
0.33	11.06	17.77	649.7	685.5
0.34	11.07	17.76	650.0	685.6
0.35	11.06	17.74	649.7	685.6
0.36	11.07	17.72	650.0	685.6
0.37	11.06	17.7	649.8	685.6
0.38	11.06	17.67	649.8	685.5
0.39	11.05	17.65	649.7	685.6
0.4	11.06	17.64	650.0	685.6
0.41	11.06	17.62	649.8	685.6
0.42	11.05	17.6	649.8	685.6
0.43	11.06	17.59	650.0	685.5
0.44	11.06	17.57	649.8	685.5
0.45	11.06	17.56	650.0	685.5
0.46	11.06	17.54	649.8	685.5
0.47	11.06	17.52	649.7	685.5
0.48	11.07	17.52	649.8	685.6
0.49	11.06	17.48	649.7	685.7
0.5	11.05	17.47	650.0	685.6
0.51	11.05	17.45	649.8	685.5
0.52	11.07	17.45	649.9	685.5
0.53	11.07	17.44	649.7	685.5
0.54	11.07	17.42	649.6	685.6
0.55	11.05	17.39	649.6	685.6
0.56	11.06	17.39	649.9	685.5
0.57	11.05	17.36	649.8	685.6
0.58	11.05	17.34	649.8	685.6
0.59	11.05	17.32	649.8	685.6
0.6	11.05	17.31	649.8	685.6
0.61	11.05	17.31	649.9	685.5
0.62	11.07	17.29	649.6	685.6
0.63	11.06	17.26	649.9	685.6
0.64	11.05	17.25	649.9	685.5
0.65	11.06	17.24	649.8	685.6
0.66	11.07	17.22	649.8	685.6
0.67	11.06	17.2	649.9	685.5
0.68	11.07	17.2	649.8	685.6
0.69	11.06	17.18	649.6	685.6
0.7	11.05	17.15	649.8	685.6
0.71	11.06	17.14	649.7	685.6
0.72	11.06	17.12	649.7	685.6
0.73	11.07	17.1	649.9	685.5
0.74	11.07	17.12	649.7	685.6
0.75	11.08	17.08	649.9	685.7
0.76	11.06	17.06	649.6	685.6
0.77	11.06	17.04	649.7	685.5
0.78	11.06	17.03	649.8	685.5
0.79	11.06	17.01	649.8	685.6
0.8	11.07	17.02	649.8	685.6
0.81	11.06	16.98	649.9	685.6
0.82	11.05	16.96	649.9	685.5
0.83	11.05	16.94	649.7	685.5
0.84	11.07	16.95	649.9	685.6
0.85	11.07	16.92	649.8	685.5
0.86	11.06	16.9	649.8	685.8
0.87	11.06	16.89	650.0	685.6
0.88	11.06	16.88	649.8	685.7
0.89	11.07	16.87	649.7	685.7
0.9	11.06	16.84	649.8	685.5
0.91	11.07	16.83	649.9	685.5
0.92	11.06	16.82	649.9	685.6
0.93	11.06	16.78	649.9	685.5
0.94	11.06	16.79	649.9	685.5
0.95	11.06	16.76	649.9	685.6
0.96	11.05	16.74	649.7	685.6
0.97	11.07	16.74	649.8	685.6
0.98	11.08	16.74	649.7	685.6
0.99	11.06	16.71	649.7	685.7
1.0	11.06	16.69	649.9	685.6
1.01	11.07	16.69	649.7	685.6
1.02	11.06	16.66	649.9	685.5
1.03	11.05	16.64	649.7	685.6
1.04	11.06	16.63	649.8	685.6
1.05	11.06	16.63	649.7	685.7
1.06	11.06	16.6	649.8	685.6
1.07	11.05	16.59	649.8	685.6
1.08	11.05	16.57	649.7	685.5
1.09	11.06	16.56	649.8	685.6
1.1	11.07	16.57	650.1	685.6
1.11	11.06	16.54	649.7	685.6
1.12	11.05	16.51	649.8	685.6
1.13	11.05	16.5	649.8	685.6
1.14	11.04	16.47	650.0	685.6
1.15	11.06	16.48	649.8	685.6
1.16	11.06	16.46	650.0	685.6
1.17	11.07	16.47	650.0	685.5
1.18	11.07	16.45	649.7	685.5
1.19	11.06	16.43	649.6	685.5
1.2	11.07	16.42	649.8	685.6
1.21	11.05	16.39	649.8	685.5
1.22	11.05	16.36	649.7	685.5
1.23	11.05	16.36	649.7	685.6
1.24	11.05	16.34	650.0	685.5
1.25	11.05	16.32	649.8	685.6
1.26	11.05	16.31	649.7	685.7
1.27	11.05	16.29	649.9	685.6
1.28	11.06	16.29	649.8	685.6
1.29	11.06	16.27	649.6	685.6
1.3	11.06	16.25	649.6	685.6
1.31	11.05	16.24	650.0	685.6
1.32	11.05	16.22	649.7	685.6
1.33	11.04	16.21	649.9	685.7
1.34	11.06	16.2	649.8	685.6
1.35	11.06	16.19	650.0	685.5
1.36	11.07	16.19	649.7	685.6
1.37	11.07	16.17	649.9	685.6
1.38	11.06	16.15	649.8	685.5
1.39	11.04	16.12	649.9	685.5
1.4	11.05	16.1	649.8	685.6
1.41	11.07	16.11	649.9	685.7
1.42	11.07	16.11	649.9	685.6
1.43	11.06	16.08	649.8	685.7
1.44	11.05	16.07	649.8	685.7
1.45	11.06	16.04	649.9	685.6
1.46	11.06	16.04	649.7	685.5
1.47	11.06	16.02	649.9	685.5
1.48	11.06	16.02	649.8	685.5
1.49	11.06	15.99	649.8	685.6
1.5	11.05	15.96	649.8	685.5
1.51	11.07	15.97	649.9	685.6
1.52	11.06	15.95	649.7	685.6
1.53	11.06	15.93	649.9	685.5
1.54	11.06	15.92	649.8	685.6
1.55	11.05	15.91	650.0	685.6
1.56	11.06	15.88	649.7	685.6
1.57	11.06	15.88	649.6	685.6
1.58	11.06	15.87	650.0	685.5
1.59	11.06	15.85	650.0	685.6
1.6	11.07	15.84	649.8	685.7
1.61	11.05	15.82	649.7	685.5
1.62	11.08	15.83	650.0	685.6
1.63	11.06	15.8	649.8	685.6
1.64	11.07	15.79	649.8	685.5
1.65	11.07	15.78	649.8	685.5
1.66	11.06	15.76	649.8	685.5
1.67	11.05	15.75	649.8	685.5
1.68	11.06	15.73	650.0	685.6
1.69	11.06	15.71	649.8	685.6
1.7	11.05	15.69	649.8	685.6
1.71	11.06	15.68	649.9	685.5
1.72	11.07	15.68	649.8	685.5
1.73	11.06	15.66	650.2	685.5
1.74	11.07	15.64	649.7	685.7
1.75	11.05	15.62	649.7	685.6
1.76	11.06	15.61	650.1	685.6
1.77	11.07	15.6	649.6	685.6
1.78	11.06	15.58	650.1	685.6
1.79	11.05	15.57	649.9	685.5
1.8	11.06	15.56	650.0	685.6
1.81	11.05	15.54	650.0	685.6
1.82	11.07	15.54	649.7	685.6
1.83	11.06	15.51	649.7	685.6
1.84	11.06	15.49	649.9	685.5
1.85	11.06	15.49	649.7	685.5
1.86	11.06	15.46	649.9	685.5
1.87	11.05	15.46	649.8	685.7
1.88	11.06	15.45	649.8	685.6
1.89	11.05	15.43	649.8	685.5
1.9	11.07	15.43	650.1	685.6
1.91	11.05	15.4	649.7	685.6
1.92	11.06	15.39	649.6	685.5
1.93	11.05	15.38	649.7	685.5
1.94	11.06	15.36	649.6	685.7
1.95	11.06	15.35	649.6	685.6
1.96	11.06	15.33	650.0	685.6
1.97	11.05	15.31	649.6	685.6
1.98	11.06	15.3	650.1	685.6
1.99	11.06	15.29	649.8	685.6
2.0	11.05	15.27	649.9	685.6
2.01	11.06	15.27	649.8	685.6
2.02	11.06	15.25	649.7	685.6
2.03	11.06	15.23	649.8	685.6
2.04	11.05	15.21	649.7	685.5
2.05	11.06	15.21	650.1	685.5
2.06	11.06	15.19	650.0	685.6
2.07	11.05	15.17	649.8	685.5
2.08	11.08	15.18	649.9	685.6
2.09	11.06	15.15	649.8	685.5
2.1	11.05	15.13	649.8	685.6
2.11	11.06	15.12	649.8	685.6
2.12	11.05	15.11	650.1	685.6
2.13	11.07	15.1	650.0	685.4
2.14	11.05	15.08	650.1	685.6
2.15	11.06	15.07	649.8	685.5
2.16	11.06	15.06	650.0	685.6
2.17	11.06	15.03	649.8	685.6
2.18	11.05	15.02	649.9	685.5
2.19	11.06	15.01	649.7	685.6
2.2	11.05	15.0	649.9	685.6
2.21	11.06	14.99	649.9	685.6
2.22	11.05	14.96	649.8	685.6
2.23	11.07	14.96	649.9	685.6
2.24	11.06	14.95	649.9	685.5
2.25	11.06	14.93	649.9	685.6
2.26	11.06	14.92	649.6	690.5
2.27	11.06	14.9	649.8	686.7
2.28	11.06	14.89	649.9	685.6
2.29	11.06	14.87	649.8	685.6
2.3	11.05	14.86	650.0	685.6
2.31	11.07	14.85	649.7	685.6
2.32	11.06	14.83	649.7	685.5
2.33	11.06	14.82	649.9	685.6
2.34	11.06	14.81	649.8	685.7
2.35	11.06	14.79	649.8	685.6
2.36	11.06	14.77	649.7	685.6
2.37	11.05	14.75	649.9	685.6
2.38	11.06	14.75	649.8	685.6
2.39	11.07	14.74	650.0	685.5
2.4	11.06	14.73	649.9	685.6
2.41	11.05	14.7	649.8	685.5
2.42	11.06	14.69	649.9	685.7
2.43	11.05	14.67	649.8	685.5
2.44	11.06	14.68	649.9	685.8
2.45	11.07	14.67	650.0	685.7
2.46	11.06	14.63	649.9	685.7
2.47	11.06	14.63	649.7	685.6
2.48	11.06	14.61	649.9	685.6
2.49	11.05	14.59	649.9	685.6
2.5	11.06	14.58	649.8	685.6
2.51	11.06	14.57	650.2	685.7
2.52	11.06	14.55	650.7	685.6
2.53	11.06	14.54	651.1	685.5
2.54	11.07	14.52	653.6	685.6
2.55	11.06	14.52	654.9	685.5
2.56	11.06	14.49	656.1	685.6
2.57	11.07	14.49	658.1	685.7
2.58	11.07	14.48	659.3	685.6
2.59	11.06	14.46	661.0	685.5
2.6	11.08	14.45	662.3	685.6
2.61	11.06	14.44	664.0	685.5
2.62	11.07	14.42	665.5	685.6
2.63	11.05	14.4	666.8	685.6
2.64	11.05	14.38	669.1	685.5
2.65	11.06	14.38	670.8	685.7
2.66	11.06	14.38	671.4	685.5
2.67	11.07	14.35	672.7	685.6
2.68	11.06	14.34	673.6	685.6
2.69	11.05	14.32	675.3	685.6
2.7	11.06	14.31	677.1	685.6
2.71	11.06	14.29	678.3	685.7
2.72	11.05	14.27	679.0	685.6
2.73	11.06	14.26	681.0	685.6
2.74	11.05	14.24	682.4	685.7
2.75	11.07	14.24	683.6	686.6
2.76	11.05	14.23	684.8	686.4
2.77	11.07	14.22	686.5	688.8
2.78	11.08	14.22	687.1	692.2
2.79	11.06	14.18	688.3	692.9
2.8	11.06	14.16	689.7	693.0
2.81	11.07	14.17	690.2	696.8
2.82	11.05	14.15	690.8	698.5
2.83	11.06	14.13	692.5	700.0
2.84	11.06	14.12	693.0	699.6
2.85	11.07	14.11	694.1	700.5
2.86	11.07	14.09	694.6	704.7
2.87	11.06	14.07	696.5	705.8
2.88	11.07	14.06	697.4	705.2
2.89	11.06	14.04	698.4	705.5
2.9	11.05	14.02	698.9	710.6
2.91	11.06	14.01	700.5	711.8
2.92	11.06	13.99	700.8	711.6
2.93	11.07	13.99	701.9	713.0
2.94	11.07	13.99	703.3	716.0
2.95	11.07	13.98	704.3	717.0
2.96	11.07	13.97	704.9	717.5
2.97	11.06	13.95	706.5	718.3
2.98	11.05	13.92	707.0	722.0
2.99	11.06	13.91	708.4	723.2
3.0	11.06	13.9	709.8	724.4
3.01	11.07	13.89	711.2	724.8
3.02	11.05	13.88	711.7	727.5
3.03	11.05	13.86	713.2	728.8
3.04	11.04	13.84	714.1	729.8
3.05	11.05	13.82	715.6	730.8
3.06	11.06	13.82	716.6	732.8
3.07	11.07	13.81	718.4	734.4
3.08	11.06	13.78	719.2	735.9
3.09	11.06	13.78	720.9	735.2
3.1	11.06	13.77	721.7	735.9
3.11	11.06	13.75	723.2	739.6
3.12	11.06	13.74	724.4	740.8
3.13	11.07	13.73	726.0	740.4
3.14	11.08	13.72	726.9	743.4
3.15	11.07	13.71	728.4	745.1
3.16	11.08	13.7	729.2	746.4
3.17	11.06	13.68	730.5	747.3
3.18	11.06	13.67	731.3	748.1
3.19	11.06	13.65	732.9	750.3
3.2	11.07	13.63	733.8	751.2
3.21	11.07	13.62	735.4	752.1
3.22	11.06	13.61	736.4	753.3
3.23	11.06	13.6	738.0	755.8
3.24	11.07	13.59	738.8	756.2
3.25	11.07	13.58	740.5	755.5
3.26	11.08	13.56	741.2	758.3
3.27	11.07	13.55	742.8	760.0
3.28	11.07	13.53	743.4	760.9
3.29	11.06	13.52	744.5	761.2
3.3	11.06	13.5	745.9	763.2
3.31	11.05	13.47	746.8	765.4
3.32	11.06	13.45	747.7	766.4
3.33	11.04	13.44	748.8	766.3
3.34	11.05	13.43	749.8	767.9
3.35	11.06	13.43	750.5	770.6
3.36	11.06	13.41	751.2	771.6
3.37	11.05	13.4	752.3	771.2
3.38	11.06	13.39	753.0	772.8
3.39	11.06	13.37	754.1	775.2
3.4	11.05	13.35	754.8	775.8
3.41	11.07	13.36	756.2	775.8
3.42	11.06	13.35	756.9	776.8
3.43	11.07	13.33	757.6	779.8
3.44	11.04	13.3	758.6	780.9
3.45	11.06	13.29	759.4	781.2
3.46	11.07	13.3	760.2	782.5
3.47	11.08	13.29	761.6	784.4
3.48	11.08	13.27	762.3	785.6
3.49	11.06	13.25	763.6	786.6
3.5	11.07	13.25	764.7	786.4
3.51	11.06	13.22	765.9	789.5
3.52	11.05	13.2	766.6	790.1
3.53	11.06	13.18	768.3	790.1
3.54	11.05	13.18	769.1	790.4
3.55	11.07	13.17	770.4	793.6
3.56	11.06	13.16	771.1	794.1
3.57	11.06	13.14	772.3	795.2
3.58	11.06	13.13	773.0	796.2
3.59	11.05	13.11	774.3	797.6
3.6	11.05	13.1	775.2	798.6
3.61	11.09	13.11	776.6	799.0
3.62	11.06	13.07	777.2	798.5
3.63	11.07	13.07	778.5	802.0
3.64	11.06	13.05	779.4	803.5
3.65	11.07	13.04	780.5	804.2
3.66	11.07	13.03	781.2	804.6
3.67	11.06	13.01	782.6	805.9
3.68	11.07	13.01	783.3	807.3
3.69	11.05	12.98	784.4	808.5
3.7	11.06	12.98	784.9	809.4
3.71	11.07	12.97	785.8	810.6
3.72	11.07	12.96	786.5	811.6
3.73	11.06	12.93	787.6	812.4
3.74	11.05	12.92	788.0	812.4
3.75	11.05	12.91	789.1	814.1
3.76	11.05	12.9	789.5	815.8
3.77	11.06	12.89	790.6	816.5
3.78	11.06	12.88	791.4	815.2
3.79	11.06	12.87	792.5	818.5
3.8	11.05	12.84	793.2	819.9
3.81	11.05	12.82	794.8	820.5
3.82	11.05	12.82	795.0	820.5
3.83	11.06	12.82	796.3	822.9
3.84	11.07	12.81	797.1	823.4
3.85	11.06	12.78	798.5	824.3
3.86	11.05	12.76	798.9	824.1
3.87	11.05	12.75	800.0	825.2
3.88	11.06	12.74	800.8	827.4
3.89	11.06	12.74	802.2	827.9
3.9	11.07	12.73	802.7	827.2
3.91	11.05	12.7	803.8	829.9
3.92	11.06	12.7	804.4	831.2
3.93	11.06	12.69	805.6	831.6
3.94	11.06	12.67	806.2	832.0
3.95	11.06	12.67	807.0	833.4
3.96	11.06	12.64	808.0	835.0
3.97	11.05	12.63	808.6	836.4
3.98	11.05	12.62	809.0	836.0
3.99	11.05	12.6	810.0	837.6
4.0	11.07	12.61	810.5	839.1
4.01	11.06	12.58	811.3	839.3
4.02	11.05	12.57	811.7	839.2
4.03	11.05	12.56	813.0	841.5
4.04	11.06	12.54	813.4	842.2
4.05	11.06	12.55	814.8	843.4
4.06	11.06	12.52	815.4	844.4
4.07	11.05	12.5	816.2	845.3
4.08	11.06	12.5	816.9	845.9
4.09	11.04	12.48	817.8	847.1
4.1	11.06	12.48	818.3	848.2
4.11	11.06	12.47	819.6	848.8
4.12	11.05	12.45	820.1	849.5
4.13	11.06	12.44	821.1	850.5
4.14	11.05	12.42	821.6	851.0
4.15	11.07	12.43	822.7	852.8
4.16	11.06	12.41	823.3	853.4
4.17	11.06	12.39	824.6	854.3
4.18	11.07	12.39	825.0	854.5
4.19	11.06	12.37	826.0	856.5
4.2	11.06	12.36	826.7	857.0
4.21	11.07	12.35	827.4	857.1
4.22	11.06	12.33	827.8	857.7
4.23	11.07	12.33	828.5	859.7
4.24	11.06	12.31	829.0	860.1
4.25	11.06	12.29	829.8	861.6
4.26	11.06	12.29	830.4	860.3
4.27	11.06	12.28	831.5	862.9
4.28	11.06	12.27	832.1	863.4
4.29	11.06	12.25	833.3	864.0
4.3	11.06	12.24	833.5	865.3
4.31	11.05	12.22	834.8	866.7
4.32	11.06	12.22	835.2	867.0
4.33	11.06	12.2	836.5	867.8
4.34	11.05	12.19	836.9	868.3
4.35	11.06	12.19	837.8	869.5
4.36	11.06	12.18	838.2	870.6
4.37	11.05	12.15	839.4	870.9
4.38	11.06	12.15	839.9	870.7
4.39	11.06	12.13	840.9	873.1
4.4	11.06	12.12	841.6	873.9
4.41	11.06	12.11	842.6	873.7
4.42	11.05	12.09	842.9	874.3
4.43	11.05	12.07	843.7	875.8
4.44	11.06	12.08	843.9	876.4
4.45	11.06	12.06	845.0	876.6
4.46	11.06	12.05	845.1	877.8
4.47	11.06	12.04	845.9	878.8
4.48	11.07	12.03	846.6	879.2
4.49	11.06	12.02	847.9	879.7
4.5	11.06	12.0	848.2	880.8
4.51	11.06	12.0	849.1	882.0
4.52	11.06	11.99	849.6	882.4
4.53	11.06	11.98	851.2	882.8
4.54	11.06	11.96	851.6	883.9
4.55	11.06	11.96	852.4	885.0
4.56	11.05	11.93	852.8	885.2
4.57	11.05	11.92	853.9	885.6
4.58	11.06	11.91	854.0	887.4
4.59	11.06	11.91	855.3	888.1
4.6	11.06	11.89	855.5	888.4
4.61	11.05	11.88	856.6	889.1
4.62	11.07	11.88	856.8	889.1
4.63	11.06	11.86	857.6	890.8
4.64	11.06	11.85	858.0	891.7
4.65	11.06	11.83	858.7	892.1
4.66	11.06	11.83	858.6	892.6
4.67	11.06	11.82	859.7	893.8
4.68	11.07	11.81	860.1	894.3
4.69	11.06	11.79	861.4	895.0
4.7	11.06	11.78	861.7	895.0
4.71	11.05	11.76	862.5	896.7
4.72	11.07	11.76	863.0	897.3
4.73	11.05	11.74	864.6	897.4
4.74	11.07	11.74	864.4	898.3
4.75	11.07	11.74	865.7	899.3
4.76	11.06	11.71	866.0	899.9
4.77	11.06	11.7	867.1	900.2
4.78	11.07	11.7	867.6	901.4
4.79	11.05	11.68	868.7	902.2
4.8	11.06	11.67	869.0	902.7
4.81	11.05	11.66	869.6	902.6
4.82	11.05	11.65	870.0	903.6
4.83	11.06	11.64	870.6	905.1
4.84	11.05	11.63	870.9	905.4
4.85	11.06	11.62	871.5	906.1
4.86	11.06	11.61	871.9	906.9
4.87	11.06	11.6	872.8	907.5
4.88	11.06	11.59	873.3	908.1
4.89	11.05	11.57	874.1	908.6
4.9	11.06	11.57	874.5	909.4
4.91	11.05	11.56	875.4	910.1
4.92	11.06	11.55	876.0	910.9
4.93	11.07	11.54	876.8	911.0
4.94	11.05	11.52	877.0	912.2
4.95	11.07	11.52	878.4	912.8
4.96	11.07	11.51	878.6	913.3
4.97	11.06	11.49	879.6	913.9
4.98	11.06	11.48	879.7	914.5
4.99	11.07	11.47	880.8	915.4
5.0	11.05	11.46	881.3	915.9
5.01	11.07	11.46	881.3	916.2
5.02	11.07	11.45	881.4	916.9
5.03	11.06	11.43	882.4	917.8
5.04	11.06	11.42	882.8	918.5
5.05	11.07	11.42	883.8	918.3
5.06	11.05	11.4	884.0	919.5
5.07	11.06	11.39	884.8	920.2
5.08	11.06	11.39	885.4	920.9
5.09	11.06	11.37	886.6	921.2
5.1	11.04	11.35	886.6	922.2
5.11	11.06	11.35	887.8	922.7
5.12	11.05	11.34	887.8	922.8
5.13	11.06	11.33	889.0	923.9
5.14	11.05	11.32	889.3	924.0
5.15	11.06	11.3	890.0	925.1
5.16	11.06	11.29	890.6	925.8
5.17	11.06	11.29	890.9	926.1
5.18	11.05	11.27	891.2	927.3
5.19	11.04	11.27	891.8	927.6
5.2	11.06	11.26	892.1	928.2
5.21	11.05	11.25	892.9	928.5
5.22	11.08	11.25	893.2	928.9
5.23	11.07	11.23	894.1	930.0
5.24	11.06	11.22	894.5	930.6
5.25	11.07	11.22	895.6	930.6
5.26	11.07	11.2	895.6	931.7
5.27	11.06	11.2	896.5	932.4
5.28	11.07	11.18	896.8	932.4
5.29	11.06	11.17	897.7	933.4
5.3	11.06	11.16	898.0	934.5
5.31	11.05	11.14	898.7	934.6
5.32	11.07	11.15	899.1	935.3
5.33	11.04	11.12	900.2	935.2
5.34	11.07	11.12	900.0	936.6
5.35	11.05	11.11	900.6	937.0
5.36	11.04	11.09	900.3	937.4
5.37	11.06	11.09	901.2	938.2
5.38	11.06	11.08	901.6	938.4
5.39	11.05	11.07	902.5	939.0
5.4	11.07	11.07	903.0	939.1
5.41	11.05	11.05	903.7	940.0
5.42	11.06	11.05	904.0	941.0
5.43	11.05	11.03	905.1	941.4
5.44	11.06	11.02	905.0	941.2
5.45	11.07	11.02	906.1	942.1
5.46	11.05	11.0	906.0	943.2
5.47	11.06	10.99	906.9	943.3
5.48	11.07	11.0	907.1	943.8
5.49	11.06	10.97	908.1	943.9
5.5	11.06	10.96	907.9	944.7
5.51	11.06	10.95	908.6	945.5
5.52	11.07	10.95	908.4	945.4
5.53	11.06	10.94	909.2	945.7
5.54	11.04	10.92	909.1	946.8
5.55	11.07	10.93	910.2	948.0
5.56	11.05	10.9	910.1	947.2
5.57	11.06	10.9	910.9	948.7
5.58	11.07	10.9	911.0	949.4
5.59	11.06	10.88	911.6	949.6
5.6	11.07	10.89	911.8	949.6
5.61	11.06	10.87	912.7	950.3
5.62	11.05	10.84	912.6	951.2
5.63	11.06	10.85	913.7	951.4
5.64	11.07	10.84	913.8	952.3
5.65	11.06	10.83	914.6	952.2
5.66	11.06	10.82	914.9	953.0
5.67	11.04	10.8	915.6	953.1
5.68	11.06	10.8	915.6	954.2
5.69	11.05	10.79	915.9	955.2
5.7	11.06	10.78	915.8	955.4
5.71	11.08	10.79	916.8	955.6
5.72	11.05	10.76	917.0	955.5
5.73	11.05	10.74	917.9	956.4
5.74	11.05	10.74	918.2	957.0
5.75	11.06	10.73	918.8	957.3
5.76	11.08	10.74	919.3	957.1
5.77	11.07	10.72	920.0	958.6
5.78	11.05	10.7	919.8	959.0
5.79	11.06	10.69	920.9	959.3
5.8	11.07	10.7	920.8	959.3
5.81	11.07	10.69	921.7	960.2
5.82	11.05	10.67	921.8	960.4
5.83	11.06	10.66	922.8	961.4
5.84	11.05	10.65	922.9	961.4
5.85	11.06	10.65	923.2	962.3
5.86	11.06	10.64	923.2	962.8
5.87	11.06	10.63	923.6	963.4
5.88	11.06	10.62	924.1	963.2
5.89	11.06	10.61	924.9	963.6
5.9	11.05	10.6	925.0	964.3
5.91	11.05	10.59	926.2	964.7
5.92	11.06	10.59	926.0	964.8
5.93	11.05	10.57	927.0	965.4
5.94	11.08	10.58	926.9	966.2
5.95	11.06	10.56	927.7	966.9
5.96	11.06	10.56	927.9	966.6
5.97	11.06	10.54	928.5	967.9
5.98	11.07	10.54	928.8	968.3
5.99	11.05	10.52	929.7	968.5
6.0	11.06	10.52	929.8	968.4
6.01	11.05	10.5	930.2	968.8
6.02	11.06	10.49	930.2	969.4
6.03	11.06	10.49	930.7	970.2
6.04	11.06	10.48	931.0	969.8
6.05	11.05	10.47	931.8	971.1
6.06	11.05	10.46	931.8	971.4
6.07	11.06	10.46	932.6	971.7
6.08	11.06	10.44	932.5	971.2
6.09	11.06	10.44	933.5	972.1
6.1	11.05	10.43	933.2	972.6
6.11	11.05	10.42	934.5	973.2
6.12	11.06	10.41	934.5	973.0
6.13	11.04	10.4	935.1	973.2
6.14	11.05	10.39	935.2	974.1
6.15	11.05	10.39	935.7	974.6
6.16	11.05	10.38	936.0	974.6
6.17	11.04	10.37	936.7	975.5
6.18	11.06	10.36	936.6	975.8
6.19	11.04	10.35	937.0	976.4
6.2	11.06	10.35	936.8	976.7
6.21	11.06	10.34	937.9	977.2
6.22	11.06	10.33	937.7	977.7
6.23	11.06	10.33	938.4	977.5
6.24	11.06	10.31	938.5	977.5
6.25	11.07	10.32	939.4	978.8
6.26	11.06	10.3	939.6	979.0
6.27	11.09	10.31	940.2	979.3
6.28	11.06	10.29	940.3	980.0
6.29	11.08	10.29	941.0	980.8
6.3	11.05	10.27	941.0	981.0
6.31	11.07	10.27	942.1	981.2
6.32	11.06	10.25	941.8	981.2
6.33	11.08	10.26	942.7	982.2
6.34	11.06	10.24	942.8	982.1
6.35	11.07	10.23	943.1	982.8
6.36	11.06	10.23	943.1	982.4
6.37	11.04	10.2	943.9	984.0
6.38	11.07	10.21	944.0	983.4
6.39	11.05	10.19	944.5	983.5
6.4	11.05	10.18	944.8	984.0
6.41	11.08	10.2	945.4	984.7
6.42	11.05	10.17	945.4	985.0
6.43	11.08	10.17	946.1	985.2
6.44	11.04	10.15	946.2	985.6
6.45	11.06	10.14	946.9	986.0
6.46	11.06	10.14	946.8	986.4
6.47	11.06	10.13	947.6	987.2
6.48	11.05	10.12	947.2	987.7
6.49	11.07	10.13	948.0	987.8
6.5	11.05	10.1	948.1	988.6
6.51	11.06	10.1	948.6	988.1
6.52	11.06	10.1	948.6	988.8
6.53	11.07	10.09	948.9	989.3
6.54	11.06	10.07	948.8	989.5
6.55	11.06	10.07	949.4	989.8
6.56	11.07	10.07	949.4	990.5
6.57	11.07	10.06	950.1	990.7
6.58	11.06	10.04	950.3	990.9
6.59	11.06	10.05	951.1	991.2
6.6	11.07	10.05	950.8	991.6
6.61	11.06	10.03	951.6	991.8
6.62	11.06	10.02	951.4	992.1
6.63	11.05	10.01	952.0	992.6
6.64	11.06	10.0	952.0	993.0
6.65	11.06	10.0	952.8	993.6
6.66	11.07	9.99	952.8	992.9
6.67	11.04	9.97	953.6	993.8
6.68	11.05	9.96	953.4	994.2
6.69	11.05	9.96	954.0	994.8
6.7	11.07	9.97	954.2	994.5
6.71	11.07	9.97	954.2	995.7
6.72	11.05	9.94	954.2	995.6
6.73	11.04	9.93	954.8	996.1
6.74	11.05	9.92	955.0	996.2
6.75	11.05	9.92	955.8	996.7
6.76	11.06	9.91	955.4	996.8
6.77	11.07	9.92	956.4	997.3
6.78	11.06	9.91	956.3	996.8
6.79	11.08	9.91	957.0	997.9
6.8	11.07	9.89	956.6	998.0
6.81	11.06	9.88	957.7	998.4
6.82	11.05	9.87	957.4	998.5
6.83	11.05	9.86	958.3	999.4
6.84	11.06	9.85	958.3	999.4
6.85	11.05	9.85	959.1	999.7
6.86	11.06	9.85	958.9	999.4
6.87	11.07	9.85	959.7	1000.2
6.88	11.07	9.84	959.5	1000.4
6.89	11.05	9.82	960.0	1000.8
6.9	11.05	9.81	959.8	1000.7
6.91	11.04	9.79	960.5	1001.6
6.92	11.06	9.8	960.5	1001.6
6.93	11.06	9.79	961.4	1001.7
6.94	11.06	9.79	961.3	1002.4
6.95	11.06	9.78	961.9	1003.5
6.96	11.07	9.78	962.0	1002.9
6.97	11.07	9.77	962.6	1003.3
6.98	11.07	9.77	962.8	1003.4
6.99	11.05	9.75	963.3	1004.1
7.0	11.06	9.74	963.2	1003.9
7.01	11.06	9.73	964.2	1004.4
7.02	11.04	9.72	963.9	1004.7
7.03	11.05	9.72	964.5	1005.0
7.04	11.05	9.71	964.7	1005.1
7.05	11.07	9.71	965.2	1005.2
7.06	11.08	9.72	965.2	1005.7
7.07	11.07	9.7	965.6	1006.3
7.08	11.07	9.7	965.4	1006.6
7.09	11.06	9.68	966.0	1006.5
7.1	11.04	9.67	966.0	1007.0
7.11	11.05	9.66	966.4	1007.4
7.12	11.04	9.65	966.6	1007.6
7.13	11.05	9.65	967.3	1007.8
7.14	11.04	9.64	966.9	1008.3
7.15	11.05	9.64	967.6	1008.7
7.16	11.06	9.65	967.5	1008.0
7.17	11.07	9.63	968.2	1008.6
7.18	11.07	9.64	968.4	1009.4
7.19	11.06	9.62	968.6	1009.5
7.2	11.07	9.61	968.7	1009.5
7.21	11.07	9.61	969.3	1009.8
7.22	11.05	9.59	969.3	1010.5
7.23	11.05	9.58	969.4	1011.0
7.24	11.04	9.57	969.6	1010.9
7.25	11.04	9.57	969.8	1012.1
7.26	11.06	9.56	970.2	1012.7
7.27	11.04	9.55	970.3	1012.1
7.28	11.04	9.55	970.6	1012.6
7.29	11.05	9.54	971.0	1012.8
7.3	11.06	9.54	971.2	1013.1
7.31	11.06	9.54	971.7	1013.5
7.32	11.05	9.53	971.6	1013.6
7.33	11.05	9.52	972.1	1013.9
7.34	11.06	9.51	972.4	1013.9
7.35	11.05	9.5	973.3	1014.1
7.36	11.05	9.5	972.9	1014.6
7.37	11.05	9.49	973.5	1015.0
7.38	11.05	9.48	973.2	1015.3
7.39	11.05	9.48	974.0	1015.3
7.4	11.05	9.47	973.9	1015.4
7.41	11.06	9.47	974.1	1015.4
7.42	11.06	9.47	974.3	1015.9
7.43	11.06	9.46	974.4	1016.3
7.44	11.07	9.46	974.1	1016.1
7.45	11.06	9.45	974.7	1016.6
7.46	11.07	9.45	974.5	1017.3
7.47	11.06	9.45	974.7	1017.3
7.48	11.07	9.44	974.6	1017.4
7.49	11.07	9.43	975.0	1017.7
7.5	11.06	9.42	975.2	1017.9
7.51	11.05	9.41	975.7	1018.2
7.52	11.05	9.4	975.7	1018.3
7.53	11.05	9.39	976.4	1019.1
7.54	11.05	9.38	976.3	1019.5
7.55	11.05	9.38	977.3	1019.4
7.56	11.04	9.36	976.8	1019.3
7.57	11.04	9.36	977.4	1020.1
7.58	11.05	9.36	977.6	1020.4
7.59	11.05	9.35	977.9	1020.5
7.6	11.06	9.35	978.0	1020.6
7.61	11.05	9.34	978.3	1021.2
7.62	11.06	9.34	978.2	1021.2
7.63	11.06	9.34	978.9	1021.1
7.64	11.07	9.34	979.0	1020.9
7.65	11.07	9.33	979.2	1021.8
7.66	11.06	9.32	979.3	1021.8
7.67	11.06	9.31	980.0	1022.0
7.68	11.05	9.3	979.8	1022.2
7.69	11.04	9.28	980.6	1022.8
7.7	11.04	9.28	980.7	1023.0
7.71	11.04	9.27	981.1	1023.2
7.72	11.05	9.28	980.9	1023.3
7.73	11.07	9.28	981.8	1023.6
7.74	11.06	9.28	981.6	1024.1
7.75	11.08	9.27	982.3	1023.9
7.76	11.05	9.25	982.4	1023.5
7.77	11.05	9.24	983.0	1024.6
7.78	11.04	9.23	982.7	1024.8
7.79	11.04	9.23	983.0	1025.0
7.8	11.06	9.24	983.2	1025.3
7.81	11.07	9.23	983.6	1026.2
7.82	11.06	9.23	983.5	1026.0
7.83	11.06	9.21	984.0	1026.1
7.84	11.04	9.2	983.9	1025.6
7.85	11.06	9.2	984.2	1027.1
7.86	11.07	9.21	984.2	1026.8
7.87	11.07	9.19	984.5	1027.2
7.88	11.05	9.19	984.2	1027.2
7.89	11.04	9.17	984.6	1027.7
7.9	11.04	9.17	984.5	1027.8
7.91	11.06	9.17	985.2	1028.0
7.92	11.06	9.17	984.9	1027.9
7.93	11.07	9.17	985.6	1028.9
7.94	11.05	9.15	985.5	1028.3
7.95	11.05	9.14	986.3	1029.1
7.96	11.04	9.13	986.0	1029.5
7.97	11.05	9.13	986.6	1029.9
7.98	11.06	9.13	986.4	1030.0
7.99	11.07	9.13	987.0	1029.4
8.0	11.05	9.12	987.0	1030.0
8.01	11.05	9.11	987.5	1030.8
8.02	11.06	9.11	987.4	1030.3
8.03	11.06	9.11	987.5	1030.7
8.04	11.07	9.1	987.6	1030.9
8.05	11.05	9.09	988.0	1031.6
8.06	11.06	9.08	988.0	1031.3
8.07	11.06	9.08	988.6	1031.5
8.08	11.07	9.08	988.5	1031.5
8.09	11.06	9.07	988.9	1032.7
8.1	11.06	9.06	989.0	1032.4
8.11	11.06	9.05	989.4	1032.7
8.12	11.07	9.06	989.2	1032.2
8.13	11.06	9.05	989.8	1033.5
8.14	11.06	9.04	989.8	1033.6
8.15	11.04	9.02	990.3	1033.7
8.16	11.07	9.03	990.2	1033.7
8.17	11.07	9.04	990.6	1034.0
8.18	11.07	9.02	990.6	1034.3
8.19	11.07	9.02	990.7	1034.5
8.2	11.05	9.0	990.9	1035.0
8.21	11.05	8.99	991.3	1035.0
8.22	11.06	9.0	991.2	1035.2
8.23	11.06	9.0	991.5	1035.4
8.24	11.06	8.99	992.0	1035.7
8.25	11.05	8.98	992.2	1035.9
8.26	11.06	8.97	992.2	1035.9
8.27	11.07	8.98	992.6	1036.3
8.28	11.04	8.96	992.5	1036.8
8.29	11.05	8.95	993.0	1036.8
8.3	11.07	8.96	993.0	1036.9
8.31	11.06	8.95	993.2	1037.0
8.32	11.04	8.94	993.4	1037.1
8.33	11.06	8.94	993.7	1038.1
8.34	11.06	8.93	993.8	1037.9
8.35	11.06	8.93	994.0	1037.8
8.36	11.06	8.92	994.1	1038.3
8.37	11.07	8.92	994.6	1038.6
8.38	11.05	8.91	994.4	1038.2
8.39	11.07	8.91	994.8	1038.2
8.4	11.07	8.91	994.8	1038.1
8.41	11.06	8.89	995.3	1039.6
8.42	11.06	8.89	995.4	1039.2
8.43	11.07	8.89	995.6	1039.5
8.44	11.05	8.87	995.6	1039.7
8.45	11.05	8.87	996.2	1040.2
8.46	11.06	8.87	996.3	1039.7
8.47	11.05	8.86	996.4	1040.2
8.48	11.05	8.85	996.5	1039.7
8.49	11.06	8.86	996.6	1040.7
8.5	11.06	8.85	996.6	1040.8
8.51	11.05	8.84	997.0	1041.4
8.52	11.06	8.84	996.5	1040.9
8.53	11.06	8.84	997.4	1042.0
8.54	11.04	8.82	996.9	1041.7
8.55	11.07	8.83	997.6	1041.8
8.56	11.05	8.82	997.3	1041.1
8.57	11.06	8.82	997.6	1042.0
8.58	11.07	8.82	997.5	1042.5
8.59	11.06	8.8	998.3	1042.8
8.6	11.06	8.8	997.9	1042.2
8.61	11.05	8.79	998.4	1043.1
8.62	11.06	8.78	998.4	1042.8
8.63	11.07	8.79	998.7	1043.5
8.64	11.05	8.77	998.7	1044.0
8.65	11.07	8.78	998.9	1044.3
8.66	11.06	8.77	998.9	1043.9
8.67	11.06	8.76	999.4	1044.1
8.68	11.07	8.76	999.3	1044.1
8.69	11.05	8.75	999.8	1045.1
8.7	11.06	8.75	999.7	1045.1
8.71	11.06	8.75	1000.1	1045.3
8.72	11.05	8.74	999.7	1045.5
8.73	11.06	8.74	1000.2	1045.7
8.74	11.05	8.73	1000.1	1045.6
8.75	11.07	8.73	1000.5	1045.6
8.76	11.07	8.73	1000.7	1046.2
8.77	11.05	8.71	1000.9	1046.3
8.78	11.07	8.71	1000.9	1046.2
8.79	11.05	8.7	1001.3	1046.6
8.8	11.06	8.7	1001.6	1046.4
8.81	11.06	8.7	1001.6	1047.0
8.82	11.06	8.69	1001.6	1046.9
8.83	11.06	8.68	1002.0	1046.8
8.84	11.06	8.68	1002.1	1047.1
8.85	11.06	8.68	1002.4	1047.6
8.86	11.06	8.68	1002.2	1047.6
8.87	11.07	8.67	1002.6	1047.7
8.88	11.05	8.65	1002.4	1048.3
8.89	11.07	8.66	1002.7	1048.5
8.9	11.06	8.65	1002.7	1048.5
8.91	11.05	8.65	1003.1	1048.2
8.92	11.07	8.65	1002.8	1049.1
8.93	11.06	8.64	1003.2	1049.1
8.94	11.06	8.63	1003.2	1048.9
8.95	11.06	8.63	1003.6	1049.7
8.96	11.06	8.63	1003.5	1049.8
8.97	11.07	8.63	1003.8	1049.6
8.98	11.06	8.62	1003.4	1049.9
8.99	11.06	8.61	1003.8	1050.0
9.0	11.07	8.61	1003.6	1050.5
9.01	11.06	8.6	1003.7	1050.6
9.02	11.06	8.6	1004.0	1051.1
9.03	11.05	8.59	1004.2	1050.8
9.04	11.07	8.59	1004.2	1051.0
9.05	11.06	8.58	1004.8	1051.3
9.06	11.06	8.58	1004.6	1050.9
9.07	11.05	8.57	1005.3	1051.6
9.08	11.05	8.57	1005.3	1051.6
9.09	11.06	8.56	1005.5	1051.8
9.1	11.06	8.57	1005.7	1051.7
9.11	11.07	8.56	1005.9	1052.7
9.12	11.06	8.55	1005.8	1052.5
9.13	11.07	8.55	1006.1	1052.6
9.14	11.06	8.54	1006.1	1052.6
9.15	11.07	8.54	1006.3	1053.1
9.16	11.06	8.54	1006.2	1052.8
9.17	11.06	8.53	1006.8	1053.0
9.18	11.06	8.53	1006.5	1052.0
9.19	11.06	8.51	1006.7	1053.4
9.2	11.07	8.52	1006.9	1053.7
9.21	11.05	8.5	1007.0	1053.8
9.22	11.06	8.51	1006.9	1053.4
9.23	11.07	8.51	1007.4	1053.9
9.24	11.06	8.5	1007.2	1054.1
9.25	11.07	8.5	1007.3	1054.2
9.26	11.05	8.49	1007.5	1054.4
9.27	11.07	8.49	1007.9	1054.8
9.28	11.06	8.48	1007.9	1055.1
9.29	11.06	8.48	1008.1	1055.6
9.3	11.06	8.47	1008.2	1054.9
9.31	11.06	8.47	1008.6	1056.2
9.32	11.07	8.47	1008.4	1055.7
9.33	11.06	8.46	1008.8	1056.3
9.34	11.06	8.46	1008.7	1056.0
9.35	11.05	8.45	1009.0	1056.9
9.36	11.06	8.45	1009.0	1056.3
9.37	11.06	8.44	1009.3	1057.1
9.38	11.07	8.44	1009.2	1056.2
9.39	11.06	8.43	1009.4	1056.7
9.4	11.05	8.42	1009.3	1056.7
9.41	11.06	8.43	1009.7	1057.4
9.42	11.06	8.42	1009.3	1057.1
9.43	11.06	8.42	1009.9	1057.8
9.44	11.07	8.41	1009.7	1057.6
9.45	11.06	8.41	1010.4	1058.0
9.46	11.06	8.41	1009.8	1057.7
9.47	11.05	8.4	1010.3	1058.3
9.48	11.07	8.4	1010.2	1058.3
9.49	11.06	8.39	1010.3	1058.2
9.5	11.06	8.39	1010.2	1058.1
9.51	11.06	8.39	1010.6	1059.1
9.52	11.06	8.38	1010.4	1059.2
9.53	11.06	8.38	1010.7	1059.1
9.54	11.06	8.37	1010.7	1059.2
9.55	11.05	8.37	1010.9	1059.7
9.56	11.06	8.37	1010.9	1059.6
9.57	11.06	8.36	1011.4	1060.3
9.58	11.06	8.36	1011.4	1059.5
9.59	11.06	8.35	1011.5	1059.9
9.6	11.07	8.35	1011.4	1060.5
9.61	11.05	8.34	1011.9	1060.6
9.62	11.06	8.34	1011.8	1060.0
9.63	11.05	8.33	1012.1	1060.8
9.64	11.06	8.33	1011.8	1060.8
9.65	11.06	8.33	1012.0	1061.2
9.66	11.07	8.32	1012.1	1061.0
9.67	11.05	8.32	1012.3	1061.7
9.68	11.06	8.31	1012.2	1061.5
9.69	11.05	8.31	1012.5	1061.8
9.7	11.06	8.3	1012.6	1061.4
9.71	11.06	8.3	1013.0	1061.8
9.72	11.07	8.3	1012.7	1061.3
9.73	11.06	8.3	1013.1	1061.5
9.74	11.06	8.29	1013.0	1061.1
9.75	11.06	8.29	1013.2	1061.0
9.76	11.06	8.29	1013.0	1060.5
9.77	11.06	8.28	1013.2	1061.0
9.78	11.05	8.27	1013.2	1059.8
9.79	11.07	8.27	1013.3	1060.3
9.8	11.05	8.27	1013.3	1060.3
9.81	11.05	8.26	1013.2	1060.8
9.82	11.05	8.26	1013.7	1061.8
9.83	11.06	8.26	1013.9	1062.7
9.84	11.05	8.25	1013.8	1062.9
9.85	11.05	8.25	1014.3	1063.4
9.86	11.06	8.24	1014.2	1063.4
9.87	11.06	8.24	1014.2	1064.1
9.88	11.06	8.24	1014.4	1064.0
9.89	11.06	8.23	1014.7	1063.9
9.9	11.06	8.23	1014.8	1064.2
9.91	11.07	8.23	1014.8	1064.9
9.92	11.07	8.23	1014.9	1064.4
9.93	11.07	8.22	1015.3	1065.0
9.94	11.05	8.21	1015.3	1064.5
9.95	11.07	8.21	1015.6	1064.9
9.96	11.06	8.21	1015.3	1064.2
9.97	11.06	8.2	1015.7	1064.7
9.98	11.05	8.2	1015.7	1064.9
9.99	11.07	8.2	1015.9	1065.0
10.0	11.07	8.2	1015.8	1064.6
10.01	11.06	8.19	1016.0	1064.8
10.02	11.05	8.18	1015.8	1065.5
10.03	11.05	8.18	1016.2	1065.1
10.04	11.06	8.18	1016.1	1065.7
10.05	11.07	8.17	1016.4	1065.4
10.06	11.05	8.16	1016.4	1065.9
10.07	11.06	8.16	1016.6	1066.3
10.08	11.06	8.17	1016.6	1066.5
10.09	11.05	8.15	1016.9	1067.1
10.1	11.06	8.15	1016.8	1067.1
10.11	11.06	8.15	1017.1	1067.2
10.12	11.06	8.15	1017.0	1066.7
10.13	11.06	8.14	1017.2	1066.8
10.14	11.06	8.14	1017.3	1067.2
10.15	11.05	8.13	1017.4	1067.5
10.16	11.06	8.13	1017.1	1067.2
10.17	11.06	8.13	1017.4	1067.4
10.18	11.07	8.13	1017.4	1067.7
10.19	11.05	8.12	1017.5	1068.4
10.2	11.05	8.11	1017.5	1068.6
10.21	11.06	8.11	1017.7	1068.7
10.22	11.07	8.11	1017.6	1068.8
10.23	11.07	8.11	1017.7	1069.3
10.24	11.07	8.1	1017.9	1068.8
10.25	11.05	8.09	1018.0	1069.0
10.26	11.06	8.09	1018.0	1069.7
10.27	11.06	8.09	1018.3	1070.0
10.28	11.06	8.09	1018.3	1070.2
10.29	11.07	8.09	1018.5	1070.1
10.3	11.07	8.08	1018.6	1069.9
10.31	11.07	8.08	1018.6	1070.4
10.32	11.06	8.08	1018.6	1070.2
10.33	11.05	8.06	1018.8	1070.4
10.34	11.06	8.06	1019.0	1070.4
10.35	11.06	8.06	1019.2	1071.2
10.36	11.07	8.06	1019.0	1071.0
10.37	11.06	8.06	1019.3	1071.6
10.38	11.06	8.05	1019.1	1071.5
10.39	11.05	8.05	1019.4	1071.6
10.4	11.06	8.04	1019.4	1072.0
10.41	11.05	8.04	1019.5	1072.0
10.42	11.07	8.04	1019.7	1071.8
10.43	11.06	8.04	1019.6	1072.3
10.44	11.06	8.03	1020.0	1071.9
10.45	11.05	8.02	1020.0	1072.5
10.46	11.05	8.02	1019.9	1072.4
10.47	11.05	8.02	1020.2	1072.7
10.48	11.06	8.02	1020.0	1072.5
10.49	11.07	8.02	1020.3	1072.6
10.5	11.07	8.01	1020.0	1072.9
10.51	11.06	8.01	1020.5	1073.7
10.52	11.06	8.01	1020.4	1072.9
10.53	11.06	8.0	1020.5	1074.2
10.54	11.06	8.0	1020.5	1073.3
10.55	11.07	8.0	1020.8	1073.6
10.56	11.05	7.99	1020.6	1073.2
10.57	11.06	7.99	1021.1	1074.1
10.58	11.06	7.98	1020.8	1074.1
10.59	11.07	7.98	1021.1	1074.4
10.6	11.05	7.98	1021.1	1074.1
10.61	11.06	7.97	1021.4	1075.0
10.62	11.05	7.97	1021.4	1074.7
10.63	11.07	7.97	1021.3	1074.7
10.64	11.05	7.96	1021.4	1074.5
10.65	11.06	7.96	1021.6	1075.5
10.66	11.06	7.96	1021.6	1075.2
10.67	11.06	7.95	1021.7	1075.6
10.68	11.06	7.95	1021.9	1075.3
10.69	11.07	7.95	1021.8	1075.7
10.7	11.06	7.94	1022.2	1075.2
10.71	11.06	7.94	1022.2	1075.9
10.72	11.06	7.93	1022.3	1075.5
10.73	11.06	7.93	1022.3	1076.1
10.74	11.06	7.93	1022.3	1076.1
10.75	11.06	7.93	1022.4	1076.8
10.76	11.06	7.92	1022.8	1076.5
10.77	11.06	7.91	1022.7	1077.4
10.78	11.06	7.92	1022.9	1077.3
10.79	11.05	7.91	1023.1	1077.2
10.8	11.05	7.91	1023.0	1076.8
10.81	11.05	7.91	1023.4	1078.1
10.82	11.05	7.9	1023.2	1077.9
10.83	11.06	7.9	1023.1	1077.6
10.84	11.06	7.9	1023.2	1077.7
10.85	11.05	7.89	1023.3	1078.5
10.86	11.06	7.89	1023.2	1078.4
10.87	11.06	7.89	1023.4	1078.4
10.88	11.07	7.89	1023.6	1077.8
10.89	11.07	7.89	1023.8	1078.5
10.9	11.06	7.88	1023.7	1078.7
10.91	11.07	7.88	1023.8	1078.8
10.92	11.07	7.88	1023.7	1078.5
10.93	11.07	7.87	1023.8	1079.0
10.94	11.07	7.87	1024.0	1078.6
10.95	11.06	7.86	1024.0	1079.0
10.96	11.07	7.86	1024.2	1079.2
10.97	11.06	7.85	1024.3	1079.2
10.98	11.06	7.85	1024.2	1079.0
10.99	11.05	7.85	1024.4	1079.0
11.0	11.06	7.84	1024.2	1079.6
11.01	11.05	7.84	1024.3	1079.5
11.02	11.06	7.84	1024.5	1080.0
11.03	11.05	7.84	1024.6	1079.8
11.04	11.06	7.84	1024.4	1080.3
11.05	11.06	7.83	1024.7	1080.4
11.06	11.06	7.83	1024.7	1080.3
11.07	11.07	7.83	1024.8	1079.9
11.08	11.06	7.83	1024.7	1080.4
11.09	11.07	7.83	1025.1	1080.8
11.1	11.07	7.82	1025.0	1080.8
11.11	11.06	7.81	1025.2	1080.6
11.12	11.06	7.81	1025.0	1081.0
11.13	11.05	7.8	1025.4	1081.1
11.14	11.05	7.8	1025.4	1080.9
11.15	11.06	7.8	1025.4	1081.2
11.16	11.05	7.79	1025.4	1081.0
11.17	11.06	7.79	1025.7	1081.5
11.18	11.05	7.79	1025.7	1081.1
11.19	11.06	7.79	1025.6	1081.5
11.2	11.07	7.79	1025.5	1082.0
11.21	11.07	7.78	1025.8	1081.9
11.22	11.07	7.78	1026.1	1081.8
11.23	11.05	7.77	1026.1	1081.9
11.24	11.06	7.77	1026.0	1082.0
11.25	11.07	7.77	1026.3	1082.2
11.26	11.06	7.77	1026.0	1081.6
11.27	11.06	7.76	1026.5	1082.0
11.28	11.06	7.76	1026.1	1082.6
11.29	11.06	7.75	1026.4	1082.4
11.3	11.06	7.75	1026.4	1082.4
11.31	11.06	7.75	1026.5	1082.3
11.32	11.05	7.74	1026.5	1083.0
11.33	11.05	7.74	1026.7	1082.9
11.34	11.05	7.74	1026.8	1083.2
11.35	11.06	7.74	1026.9	1082.8
11.36	11.06	7.74	1026.8	1083.0
11.37	11.07	7.74	1027.2	1083.7
11.38	11.07	7.74	1027.0	1083.5
11.39	11.05	7.72	1027.2	1084.1
11.4	11.06	7.72	1027.2	1084.4
11.41	11.06	7.72	1027.4	1084.6
11.42	11.05	7.72	1027.2	1084.7
11.43	11.07	7.72	1027.4	1084.9
11.44	11.07	7.71	1027.5	1084.1
11.45	11.06	7.71	1027.6	1084.6
11.46	11.06	7.7	1027.8	1084.6
11.47	11.04	7.69	1027.8	1084.8
11.48	11.06	7.7	1027.8	1084.9
11.49	11.06	7.7	1028.0	1085.3
11.5	11.07	7.7	1028.0	1085.1
11.51	11.06	7.69	1028.3	1085.9
11.52	11.07	7.69	1028.1	1085.4
11.53	11.07	7.69	1028.5	1085.8
11.54	11.07	7.69	1028.2	1085.5
11.55	11.06	7.68	1028.5	1086.0
11.56	11.06	7.68	1028.3	1085.5
11.57	11.05	7.67	1028.2	1086.0
11.58	11.05	7.67	1028.3	1085.7
11.59	11.05	7.67	1028.6	1086.2
11.6	11.07	7.67	1028.4	1086.6
11.61	11.07	7.67	1028.7	1086.5
11.62	11.07	7.67	1028.8	1086.1
11.63	11.06	7.66	1028.9	1086.7
11.64	11.06	7.65	1028.9	1086.0
11.65	11.06	7.65	1029.2	1086.2
11.66	11.08	7.66	1029.2	1086.3
11.67	11.06	7.65	1029.3	1086.9
11.68	11.06	7.64	1029.3	1086.9
11.69	11.05	7.64	1029.1	1087.0
11.7	11.05	7.63	1029.2	1087.3
11.71	11.06	7.64	1029.2	1087.7
11.72	11.07	7.64	1029.3	1087.8
11.73	11.06	7.63	1029.4	1088.2
11.74	11.06	7.63	1029.4	1087.9
11.75	11.05	7.62	1029.6	1088.7
11.76	11.07	7.62	1029.7	1088.6
11.77	11.06	7.62	1029.7	1088.9
11.78	11.05	7.61	1029.9	1088.9
11.79	11.05	7.6	1030.2	1089.1
11.8	11.05	7.6	1029.9	1089.0
11.81	11.05	7.6	1030.0	1088.9
11.82	11.06	7.6	1030.1	1088.7
11.83	11.06	7.6	1029.9	1089.0
11.84	11.07	7.61	1030.1	1089.3
11.85	11.07	7.6	1030.0	1089.6
11.86	11.06	7.59	1029.9	1089.4
11.87	11.07	7.59	1030.4	1089.6
11.88	11.05	7.59	1030.0	1089.4
11.89	11.06	7.58	1030.4	1090.2
11.9	11.06	7.58	1030.2	1089.7
11.91	11.06	7.58	1030.4	1090.5
11.92	11.05	7.58	1030.3	1090.2
11.93	11.06	7.57	1030.7	1090.3
11.94	11.06	7.57	1030.6	1090.3
11.95	11.07	7.57	1030.6	1090.8
11.96	11.05	7.56	1030.9	1090.4
11.97	11.07	7.56	1030.6	1090.0
11.98	11.06	7.56	1030.8	1090.7
11.99	11.06	7.55	1030.8	1091.3
12.0	11.06	7.56	1030.7	1091.0
12.01	11.07	7.55	1030.8	1091.2
12.02	11.06	7.55	1030.9	1091.3
12.03	11.07	7.55	1031.2	1091.5
12.04	11.05	7.54	1031.3	1091.3
12.05	11.05	7.54	1031.2	1091.2
12.06	11.05	7.54	1031.0	1092.0
12.07	11.06	7.54	1031.4	1092.0
12.08	11.05	7.53	1031.3	1092.2
12.09	11.05	7.53	1031.8	1092.0
12.1	11.06	7.53	1031.2	1092.3
12.11	11.06	7.53	1031.4	1092.4
12.12	11.05	7.52	1031.4	1092.1
12.13	11.06	7.52	1031.7	1092.3
12.14	11.05	7.52	1031.6	1092.0
12.15	11.07	7.52	1031.9	1092.9
12.16	11.06	7.51	1032.0	1092.8
12.17	11.06	7.51	1031.8	1093.4
12.18	11.06	7.51	1032.0	1093.1
12.19	11.06	7.51	1031.8	1093.3
12.2	11.07	7.51	1032.0	1093.0
12.21	11.06	7.5	1031.9	1092.8
12.22	11.06	7.5	1032.2	1093.0
12.23	11.07	7.5	1032.2	1093.4
12.24	11.07	7.49	1032.3	1093.8
12.25	11.05	7.48	1032.3	1093.2
12.26	11.06	7.49	1032.2	1093.8
12.27	11.05	7.48	1032.5	1094.1
12.28	11.06	7.49	1032.4	1093.8
12.29	11.06	7.48	1032.8	1093.9
12.3	11.06	7.48	1032.3	1094.0
12.31	11.06	7.48	1032.5	1093.8
12.32	11.06	7.47	1032.6	1093.2
12.33	11.06	7.47	1032.6	1093.5
12.34	11.06	7.47	1032.7	1094.4
12.35	11.06	7.47	1032.6	1094.7
12.36	11.06	7.46	1032.4	1094.9
12.37	11.05	7.46	1032.7	1095.3
12.38	11.06	7.46	1032.7	1095.0
12.39	11.06	7.46	1032.9	1095.1
12.4	11.07	7.46	1032.8	1095.0
12.41	11.06	7.45	1032.9	1094.7
12.42	11.06	7.45	1032.7	1095.2
12.43	11.06	7.44	1033.0	1095.8
12.44	11.07	7.45	1033.0	1095.8
12.45	11.05	7.43	1033.1	1095.4
12.46	11.06	7.44	1033.1	1096.1
12.47	11.06	7.44	1033.2	1096.1
12.48	11.07	7.43	1033.1	1096.6
12.49	11.06	7.43	1033.2	1096.5
12.5	11.06	7.42	1032.8	1096.3
12.51	11.07	7.43	1033.3	1096.2
12.52	11.07	7.43	1033.1	1096.3
12.53	11.05	7.42	1033.4	1096.6
12.54	11.06	7.42	1033.5	1096.7
12.55	11.06	7.42	1033.4	1097.0
12.56	11.05	7.41	1033.5	1097.2
12.57	11.06	7.41	1033.6	1097.3
12.58	11.06	7.41	1033.8	1097.0
12.59	11.07	7.41	1033.8	1097.2
12.6	11.06	7.4	1033.7	1097.3
12.61	11.06	7.4	1033.9	1097.0
12.62	11.06	7.4	1034.0	1097.6
12.63	11.05	7.39	1034.0	1097.5
12.64	11.06	7.4	1034.2	1097.6
12.65	11.06	7.39	1034.0	1097.9
12.66	11.06	7.39	1034.1	1097.8
12.67	11.06	7.39	1034.2	1098.0
12.68	11.06	7.39	1034.1	1097.5
12.69	11.05	7.38	1034.2	1097.8
12.7	11.06	7.38	1034.2	1098.0
12.71	11.06	7.37	1034.4	1098.8
12.72	11.06	7.38	1034.2	1098.6
12.73	11.06	7.37	1034.4	1098.3
12.74	11.05	7.37	1034.3	1098.4
12.75	11.07	7.37	1034.3	1099.1
12.76	11.05	7.36	1034.7	1099.0
12.77	11.07	7.37	1034.6	1098.9
12.78	11.05	7.36	1034.5	1099.4
12.79	11.07	7.36	1034.7	1099.5
12.8	11.06	7.36	1035.0	1099.3
12.81	11.06	7.36	1034.7	1099.4
12.82	11.06	7.35	1034.8	1099.3
12.83	11.06	7.35	1035.0	1099.6
12.84	11.05	7.35	1035.0	1099.2
12.85	11.05	7.34	1035.0	1099.9
12.86	11.06	7.35	1034.8	1099.7
12.87	11.05	7.34	1034.9	1100.2
12.88	11.06	7.34	1034.8	1099.6
12.89	11.05	7.33	1035.0	1099.8
12.9	11.07	7.33	1035.0	1100.0
12.91	11.05	7.33	1035.2	1100.1
12.92	11.06	7.33	1034.9	1099.9
12.93	11.06	7.33	1035.0	1100.5
12.94	11.07	7.32	1035.3	1100.4
12.95	11.07	7.32	1035.3	1100.6
12.96	11.06	7.32	1035.1	1100.0
12.97	11.05	7.32	1035.2	1100.9
12.98	11.06	7.31	1035.3	1101.3
12.99	11.06	7.31	1035.4	1101.2
13.0	11.05	7.3	1035.2	1101.2
13.01	11.06	7.31	1035.4	1100.9
13.02	11.05	7.3	1035.5	1101.2
13.03	11.07	7.31	1035.6	1102.3
13.04	11.05	7.29	1035.4	1101.8
13.05	11.06	7.3	1035.8	1101.5
13.06	11.06	7.3	1035.5	1101.8
13.07	11.05	7.29	1035.8	1101.6
13.08	11.07	7.3	1035.9	1101.7
13.09	11.06	7.29	1035.7	1102.3
13.1	11.06	7.29	1035.7	1101.9
13.11	11.05	7.29	1035.7	1102.4
13.12	11.06	7.28	1036.0	1101.8
13.13	11.06	7.28	1036.0	1102.2
13.14	11.07	7.28	1036.0	1102.5
13.15	11.05	7.27	1036.2	1102.8
13.16	11.06	7.27	1036.2	1102.0
13.17	11.06	7.27	1036.3	1102.8
13.18	11.06	7.27	1036.2	1102.8
13.19	11.06	7.27	1036.3	1103.2
13.2	11.07	7.26	1035.8	1102.6
13.21	11.05	7.26	1036.2	1103.2
13.22	11.07	7.26	1036.3	1103.0
13.23	11.05	7.25	1036.3	1103.0
13.24	11.07	7.26	1036.2	1103.0
13.25	11.06	7.26	1036.2	1103.3
13.26	11.05	7.25	1036.2	1103.2
13.27	11.07	7.25	1036.5	1103.3
13.28	11.06	7.25	1036.4	1102.8
13.29	11.07	7.25	1036.4	1103.4
13.3	11.07	7.25	1036.6	1103.4
13.31	11.06	7.24	1036.7	1103.4
13.32	11.07	7.25	1036.8	1103.3
13.33	11.06	7.23	1036.6	1103.6
13.34	11.05	7.23	1036.7	1103.6
13.35	11.06	7.23	1036.9	1104.0
13.36	11.05	7.23	1036.8	1104.2
13.37	11.07	7.23	1037.0	1104.0
13.38	11.06	7.23	1037.0	1104.4
13.39	11.06	7.23	1036.8	1105.0
13.4	11.05	7.22	1036.8	1104.5
13.41	11.06	7.22	1037.0	1105.0
13.42	11.06	7.22	1036.9	1104.8
13.43	11.06	7.21	1037.1	1104.9
13.44	11.05	7.21	1037.1	1105.4
13.45	11.06	7.21	1037.2	1105.6
13.46	11.06	7.21	1037.2	1105.5
13.47	11.06	7.21	1037.3	1105.7
13.48	11.06	7.2	1037.1	1105.5
13.49	11.06	7.2	1037.2	1106.0
13.5	11.07	7.21	1037.2	1105.9
13.51	11.06	7.2	1037.4	1106.2
13.52	11.06	7.2	1037.4	1105.9
13.53	11.07	7.2	1037.4	1106.0
13.54	11.04	7.18	1037.7	1105.8
13.55	11.06	7.19	1037.5	1105.8
13.56	11.04	7.18	1037.5	1106.5
13.57	11.06	7.19	1037.5	1106.4
13.58	11.06	7.19	1037.8	1106.0
13.59	11.05	7.18	1037.8	1106.3
13.6	11.07	7.19	1037.7	1106.2
13.61	11.05	7.17	1037.5	1106.7
13.62	11.06	7.17	1037.6	1107.0
13.63	11.07	7.18	1037.7	1106.3
13.64	11.06	7.17	1037.7	1106.9
13.65	11.07	7.17	1037.8	1107.1
13.66	11.08	7.18	1037.9	1107.2
13.67	11.06	7.16	1037.8	1107.5
13.68	11.07	7.17	1037.8	1107.3
13.69	11.06	7.17	1037.9	1107.1
13.7	11.05	7.16	1037.9	1107.2
13.71	11.06	7.16	1038.2	1107.6
13.72	11.06	7.16	1038.0	1107.8
13.73	11.06	7.16	1038.0	1107.8
13.74	11.07	7.16	1038.2	1107.4
13.75	11.06	7.15	1038.2	1107.4
13.76	11.06	7.14	1038.3	1107.8
13.77	11.06	7.14	1038.3	1108.2
13.78	11.07	7.15	1038.4	1107.8
13.79	11.06	7.14	1038.4	1108.2
13.8	11.06	7.14	1038.6	1108.6
13.81	11.07	7.14	1038.4	1108.7
13.82	11.06	7.13	1038.1	1108.4
13.83	11.05	7.13	1038.4	1108.4
13.84	11.07	7.14	1038.6	1109.2
13.85	11.05	7.13	1038.4	1109.2
13.86	11.06	7.12	1038.4	1109.0
13.87	11.07	7.13	1038.7	1109.4
13.88	11.06	7.12	1038.6	1109.1
13.89	11.05	7.12	1038.7	1109.5
13.9	11.05	7.12	1038.6	1109.8
13.91	11.06	7.12	1038.8	1109.6
13.92	11.05	7.11	1038.8	1110.0
13.93	11.05	7.11	1038.7	1109.5
13.94	11.07	7.11	1038.8	1109.8
13.95	11.05	7.11	1039.0	1110.5
13.96	11.06	7.11	1038.7	1110.3
13.97	11.07	7.11	1039.0	1110.2
13.98	11.06	7.1	1038.9	1109.5
13.99	11.07	7.1	1038.9	1110.7
14.0	11.07	7.1	1038.8	1110.6
14.01	11.06	7.1	1039.0	1110.6
14.02	11.05	7.09	1038.9	1110.9
14.03	11.06	7.09	1038.8	1111.3
14.04	11.07	7.1	1039.1	1111.6
14.05	11.07	7.09	1039.1	1111.5
14.06	11.05	7.08	1038.8	1111.4
14.07	11.05	7.08	1039.1	1111.3
14.08	11.06	7.08	1039.0	1111.6
14.09	11.07	7.08	1039.2	1111.6
14.1	11.06	7.08	1039.2	1111.4
14.11	11.06	7.08	1039.3	1111.6
14.12	11.06	7.08	1039.2	1111.7
14.13	11.06	7.07	1039.2	1111.6
14.14	11.05	7.07	1039.2	1111.2
14.15	11.05	7.06	1039.4	1111.6
14.16	11.06	7.07	1039.1	1111.8
14.17	11.07	7.07	1039.4	1111.7
14.18	11.05	7.06	1039.3	1111.7
14.19	11.06	7.06	1039.4	1112.2
14.2	11.05	7.06	1039.3	1112.1
14.21	11.05	7.06	1039.4	1111.8
14.22	11.06	7.06	1039.4	1111.7
14.23	11.06	7.05	1039.3	1112.0
14.24	11.05	7.05	1039.2	1112.2
14.25	11.05	7.05	1039.4	1112.2
14.26	11.06	7.05	1039.4	1112.3
14.27	11.07	7.05	1039.6	1112.6
14.28	11.06	7.04	1039.6	1112.6
14.29	11.05	7.04	1039.4	1112.8
14.3	11.06	7.04	1039.6	1112.9
14.31	11.06	7.04	1039.3	1112.6
14.32	11.07	7.04	1039.5	1113.2
14.33	11.07	7.04	1039.6	1113.4
14.34	11.06	7.03	1039.7	1113.0
14.35	11.04	7.03	1039.6	1112.8
14.36	11.05	7.02	1039.8	1112.9
14.37	11.05	7.03	1039.7	1113.3
14.38	11.07	7.03	1039.7	1112.6
14.39	11.07	7.03	1039.8	1113.2
14.4	11.07	7.03	1039.7	1113.2
14.41	11.05	7.02	1039.8	1113.6
14.42	11.05	7.02	1040.0	1113.7
14.43	11.06	7.02	1040.0	1114.0
14.44	11.06	7.02	1040.1	1113.8
14.45	11.06	7.02	1039.9	1114.0
14.46	11.07	7.02	1040.0	1114.0
14.47	11.05	7.01	1040.0	1114.1
14.48	11.06	7.0	1040.2	1113.9
14.49	11.05	7.0	1039.9	1114.2
14.5	11.06	7.01	1040.2	1113.8
14.51	11.07	7.01	1040.1	1113.8
14.52	11.07	7.0	1040.2	1114.6
14.53	11.04	6.99	1040.4	1114.5
14.54	11.05	6.99	1040.3	1114.4
14.55	11.04	6.99	1040.3	1114.1
14.56	11.06	6.99	1040.2	1114.8
14.57	11.06	7.0	1040.4	1115.0
14.58	11.07	7.0	1040.4	1114.4
14.59	11.07	6.99	1040.2	1115.0
14.6	11.05	6.99	1040.3	1114.8
14.61	11.05	6.98	1040.4	1115.0
14.62	11.05	6.98	1040.2	1115.0
14.63	11.06	6.98	1040.5	1115.5
14.64	11.06	6.98	1040.2	1114.8
14.65	11.05	6.98	1040.5	1115.2
14.66	11.05	6.97	1040.3	1114.9
14.67	11.05	6.97	1040.3	1115.1
14.68	11.05	6.97	1040.4	1115.1
14.69	11.07	6.98	1040.5	1115.4
14.7	11.06	6.97	1040.4	1115.2
14.71	11.05	6.96	1040.4	1115.7
14.72	11.05	6.96	1040.6	1116.0
14.73	11.05	6.96	1040.6	1115.5
14.74	11.06	6.97	1040.8	1116.2
14.75	11.08	6.97	1040.8	1116.0
14.76	11.07	6.96	1040.8	1115.9
14.77	11.07	6.96	1040.6	1116.0
14.78	11.06	6.95	1040.8	1115.8
14.79	11.06	6.95	1041.0	1115.9
14.8	11.05	6.95	1040.6	1116.3
14.81	11.04	6.94	1041.0	1116.5
14.82	11.05	6.94	1040.7	1116.6
14.83	11.05	6.94	1040.9	1116.7
14.84	11.05	6.94	1040.7	1116.8
14.85	11.06	6.94	1041.0	1117.3
14.86	11.06	6.94	1040.9	1116.9
14.87	11.07	6.94	1040.9	1117.0
14.88	11.06	6.94	1040.8	1117.4
14.89	11.07	6.94	1041.0	1116.8
14.9	11.07	6.94	1040.8	1117.1
14.91	11.06	6.94	1041.1	1117.4
14.92	11.06	6.94	1041.1	1117.8
14.93	11.06	6.93	1041.1	1118.0
14.94	11.06	6.93	1041.0	1117.8
14.95	11.06	6.93	1041.0	1118.0
14.96	11.05	6.92	1041.0	1117.8
14.97	11.06	6.92	1041.2	1117.6
14.98	11.06	6.92	1041.1	1118.3
14.99	11.07	6.92	1041.2	1118.1
15.0	11.07	6.92	1041.4	1118.5
15.01	11.06	6.92	1041.4	1117.6
15.02	11.07	6.92	1041.5	1118.0
15.03	11.08	6.92	1041.3	1118.2
15.04	11.07	6.92	1041.4	1118.8
15.05	11.07	6.92	1041.6	1118.6
15.06	11.07	6.91	1041.5	1118.5
15.07	11.07	6.91	1041.7	1118.7
15.08	11.07	6.91	1041.7	1118.1
15.09	11.06	6.91	1041.6	1118.7
15.1	11.06	6.9	1041.6	1118.7
15.11	11.06	6.9	1041.6	1118.7
15.12	11.06	6.89	1041.6	1119.2
15.13	11.06	6.89	1041.4	1119.5
15.14	11.06	6.89	1041.5	1119.2
15.15	11.05	6.89	1041.6	1119.6
15.16	11.06	6.89	1041.7	1119.6
15.17	11.05	6.88	1041.6	1119.7
15.18	11.05	6.89	1041.8	1120.0
15.19	11.04	6.88	1041.6	1119.5
15.2	11.06	6.88	1041.8	1119.8
15.21	11.06	6.89	1041.8	1119.8
15.22	11.06	6.88	1042.0	1119.7
15.23	11.07	6.89	1041.8	1120.0
15.24	11.06	6.88	1042.0	1119.8
15.25	11.06	6.88	1042.1	1120.3
15.26	11.07	6.88	1042.1	1120.5
15.27	11.06	6.87	1042.0	1120.4
15.28	11.06	6.87	1042.1	1120.4
15.29	11.06	6.87	1042.0	1120.6
15.3	11.07	6.87	1042.0	1120.3
15.31	11.07	6.87	1042.3	1120.4
15.32	11.07	6.87	1042.2	1121.1
15.33	11.07	6.87	1042.3	1120.9
15.34	11.07	6.87	1042.2	1120.5
15.35	11.07	6.86	1042.2	1120.7
15.36	11.06	6.86	1041.9	1120.8
15.37	11.06	6.86	1042.2	1121.2
15.38	11.06	6.85	1042.3	1120.5
15.39	11.07	6.86	1042.5	1120.9
15.4	11.06	6.85	1042.4	1120.8
15.41	11.05	6.85	1042.5	1121.3
15.42	11.05	6.85	1042.5	1121.1
15.43	11.06	6.84	1042.5	1121.2
15.44	11.06	6.84	1042.4	1121.1
15.45	11.04	6.83	1042.5	1121.4
15.46	11.04	6.84	1042.6	1121.5
15.47	11.05	6.83	1042.3	1121.4
15.48	11.04	6.83	1042.7	1122.0
15.49	11.07	6.84	1042.7	1121.9
15.5	11.06	6.84	1042.7	1121.6
15.51	11.06	6.84	1042.9	1121.6
15.52	11.07	6.84	1042.5	1121.6
15.53	11.07	6.83	1042.8	1121.9
15.54	11.07	6.83	1042.5	1121.8
15.55	11.06	6.83	1042.7	1122.1
15.56	11.06	6.82	1042.7	1122.1
15.57	11.06	6.82	1042.8	1122.0
15.58	11.05	6.82	1042.9	1122.1
15.59	11.05	6.81	1043.1	1122.4
15.6	11.05	6.81	1042.7	1122.7
15.61	11.05	6.81	1042.7	1122.7
15.62	11.05	6.81	1042.8	1122.6
15.63	11.04	6.81	1042.8	1122.6
15.64	11.05	6.81	1042.8	1123.0
15.65	11.06	6.81	1042.7	1122.9
15.66	11.06	6.81	1043.0	1122.6
15.67	11.06	6.81	1042.9	1122.8
15.68	11.06	6.81	1042.9	1123.0
15.69	11.06	6.81	1043.0	1122.8
15.7	11.05	6.81	1043.0	1123.0
15.71	11.07	6.81	1042.9	1123.4
15.72	11.07	6.81	1043.0	1123.5
15.73	11.07	6.81	1043.1	1123.4
15.74	11.07	6.8	1043.2	1123.8
15.75	11.07	6.8	1043.2	1123.8
15.76	11.08	6.8	1043.1	1123.8
15.77	11.08	6.8	1043.1	1124.2
15.78	11.08	6.8	1043.0	1124.1
15.79	11.06	6.79	1042.9	1124.2
15.8	11.07	6.79	1043.1	1123.8
15.81	11.06	6.79	1043.2	1124.2
15.82	11.06	6.79	1043.2	1123.8
15.83	11.06	6.78	1043.2	1124.7
15.84	11.07	6.79	1043.2	1124.4
15.85	11.07	6.78	1043.2	1124.8
15.86	11.07	6.78	1043.3	1124.2
15.87	11.06	6.78	1043.1	1125.1
15.88	11.08	6.78	1043.2	1124.7
15.89	11.07	6.78	1043.5	1125.2
15.9	11.07	6.77	1043.3	1125.3
15.91	11.05	6.77	1043.4	1125.2
15.92	11.06	6.77	1043.5	1125.0
15.93	11.04	6.76	1043.5	1125.6
15.94	11.06	6.76	1043.4	1125.6
15.95	11.04	6.76	1043.3	1125.4
15.96	11.05	6.76	1043.4	1125.4
15.97	11.05	6.76	1043.6	1125.5
15.98	11.05	6.75	1043.8	1126.1
15.99	11.05	6.76	1043.5	1126.3
16.0	11.05	6.75	1043.6	1126.0
16.01	11.05	6.75	1043.4	1125.8
16.02	11.06	6.75	1043.6	1126.3
16.03	11.05	6.75	1043.6	1126.4
16.04	11.05	6.75	1043.6	1125.7
16.05	11.04	6.74	1043.7	1125.8
16.06	11.05	6.74	1043.6	1126.5
16.07	11.05	6.75	1043.9	1126.2
16.08	11.05	6.75	1043.8	1126.2
16.09	11.07	6.75	1043.9	1126.1
16.1	11.07	6.75	1043.5	1126.2
16.11	11.08	6.75	1043.7	1126.2
16.12	11.07	6.75	1043.8	1126.4
16.13	11.07	6.74	1043.8	1126.2
16.14	11.07	6.74	1043.6	1126.6
16.15	11.06	6.74	1043.9	1126.7
16.16	11.06	6.74	1043.8	1126.5
16.17	11.06	6.74	1043.8	1126.3
16.18	11.07	6.74	1044.1	1126.1
16.19	11.06	6.74	1044.0	1126.4
16.2	11.06	6.74	1043.8	1126.1
16.21	11.06	6.72	1043.8	1126.9
16.22	11.05	6.73	1043.8	1126.8
16.23	11.06	6.72	1044.1	1127.1
16.24	11.05	6.72	1044.2	1127.1
16.25	11.06	6.72	1044.2	1127.6
16.26	11.05	6.71	1044.1	1127.4
16.27	11.05	6.71	1044.1	1127.4
16.28	11.05	6.71	1044.0	1127.2
16.29	11.04	6.71	1044.1	1128.1
16.3	11.05	6.71	1044.3	1127.4
16.31	11.05	6.71	1044.2	1127.8
16.32	11.05	6.71	1044.2	1127.4
16.33	11.06	6.71	1044.0	1128.0
16.34	11.06	6.71	1044.2	1127.8
16.35	11.07	6.71	1044.4	1128.1
16.36	11.04	6.7	1044.3	1127.9
16.37	11.06	6.7	1044.5	1128.3
16.38	11.05	6.7	1044.4	1128.2
16.39	11.06	6.7	1044.4	1128.5
16.4	11.06	6.7	1044.5	1128.0
16.41	11.06	6.7	1044.3	1128.8
16.42	11.05	6.69	1044.3	1128.4
16.43	11.05	6.69	1044.5	1128.9
16.44	11.04	6.68	1044.6	1128.5
16.45	11.05	6.69	1044.5	1128.2
16.46	11.06	6.69	1044.4	1128.5
16.47	11.05	6.69	1044.4	1128.3
16.48	11.07	6.7	1044.4	1128.6
16.49	11.06	6.69	1044.5	1128.8
16.5	11.08	6.7	1044.6	1129.2
16.51	11.06	6.69	1044.7	1128.7
16.52	11.06	6.68	1044.7	1128.8
16.53	11.06	6.68	1044.5	1129.2
16.54	11.05	6.67	1044.7	1129.0
16.55	11.07	6.68	1044.7	1128.8
16.56	11.08	6.69	1044.6	1128.5
16.57	11.05	6.67	1044.5	1129.0
16.58	11.07	6.67	1044.6	1129.0
16.59	11.05	6.67	1044.6	1129.5
16.6	11.06	6.67	1044.8	1129.2
16.61	11.06	6.67	1044.5	1129.8
16.62	11.07	6.67	1044.9	1130.1
16.63	11.07	6.67	1045.0	1129.9
16.64	11.07	6.67	1044.7	1129.6
16.65	11.05	6.66	1044.7	1129.6
16.66	11.06	6.66	1045.0	1129.6
16.67	11.04	6.66	1045.0	1130.2
16.68	11.06	6.66	1045.1	1130.0
16.69	11.05	6.66	1045.0	1130.1
16.7	11.07	6.66	1045.0	1130.0
16.71	11.06	6.66	1044.8	1130.2
16.72	11.07	6.66	1045.0	1129.9
16.73	11.07	6.66	1044.9	1130.2
16.74	11.07	6.66	1044.8	1130.1
16.75	11.07	6.66	1044.9	1129.9
16.76	11.06	6.65	1045.0	1130.2
16.77	11.06	6.64	1045.2	1130.4
16.78	11.05	6.64	1045.3	1130.4
16.79	11.06	6.65	1045.2	1130.4
16.8	11.06	6.65	1045.4	1130.2
16.81	11.06	6.65	1045.2	1130.6
16.82	11.07	6.65	1045.2	1130.8
16.83	11.07	6.64	1045.4	1130.7
16.84	11.06	6.64	1045.2	1130.4
16.85	11.07	6.64	1045.2	1131.2
16.86	11.07	6.65	1045.4	1131.2
16.87	11.08	6.64	1045.4	1131.2
16.88	11.07	6.64	1045.4	1130.5
16.89	11.06	6.63	1045.4	1131.0
16.9	11.05	6.63	1045.3	1131.0
16.91	11.05	6.63	1045.7	1130.8
16.92	11.06	6.63	1045.7	1131.1
16.93	11.05	6.62	1045.6	1130.9
16.94	11.04	6.62	1045.4	1131.5
16.95	11.06	6.62	1045.5	1131.2
16.96	11.04	6.62	1045.5	1131.6
16.97	11.06	6.62	1045.4	1131.6
16.98	11.06	6.63	1045.6	1131.9
16.99	11.08	6.63	1045.5	1132.0
17.0	11.06	6.62	1045.5	1131.8
17.01	11.05	6.61	1045.7	1132.3
17.02	11.05	6.61	1045.9	1132.1
17.03	11.06	6.61	1045.6	1131.9
17.04	11.05	6.61	1045.8	1132.1
17.05	11.06	6.61	1045.8	1132.5
17.06	11.05	6.61	1045.7	1132.0
17.07	11.05	6.61	1045.7	1132.1
17.08	11.05	6.61	1045.8	1132.8
17.09	11.06	6.61	1045.6	1132.7
17.1	11.07	6.61	1045.8	1132.8
17.11	11.06	6.61	1046.1	1132.2
17.12	11.07	6.61	1046.0	1132.4
17.13	11.05	6.6	1045.9	1132.5
17.14	11.06	6.6	1045.9	1132.6
17.15	11.06	6.6	1045.9	1132.4
17.16	11.05	6.59	1045.9	1132.8
17.17	11.05	6.59	1045.8	1132.6
17.18	11.06	6.59	1046.0	1132.8
17.19	11.06	6.59	1046.1	1132.9
17.2	11.06	6.59	1046.2	1133.1
17.21	11.06	6.6	1046.2	1133.4
17.22	11.06	6.59	1046.1	1133.2
17.23	11.06	6.59	1045.9	1133.0
17.24	11.06	6.59	1046.1	1132.5
17.25	11.04	6.58	1046.1	1132.7
17.26	11.05	6.58	1046.0	1133.1
17.27	11.04	6.58	1046.0	1133.0
17.28	11.06	6.58	1046.4	1133.2
17.29	11.06	6.58	1046.4	1133.3
17.3	11.07	6.59	1046.1	1133.5
17.31	11.07	6.59	1046.0	1133.1
17.32	11.06	6.58	1046.0	1133.5
17.33	11.07	6.58	1046.0	1133.5
17.34	11.06	6.57	1046.1	1133.6
17.35	11.06	6.58	1046.2	1133.0
17.36	11.06	6.57	1046.1	1134.2
17.37	11.05	6.57	1046.2	1133.9
17.38	11.05	6.56	1046.2	1134.0
17.39	11.05	6.56	1046.1	1134.0
17.4	11.04	6.56	1046.0	1134.2
17.41	11.06	6.56	1046.1	1133.8
17.42	11.07	6.57	1046.2	1134.4
17.43	11.07	6.57	1046.0	1133.7
17.44	11.06	6.57	1046.1	1134.1
17.45	11.05	6.56	1046.0	1134.3
17.46	11.05	6.56	1046.2	1134.6
17.47	11.06	6.56	1046.1	1134.2
17.48	11.06	6.56	1046.1	1134.6
17.49	11.06	6.56	1046.2	1134.5
17.5	11.06	6.56	1046.1	1134.2
17.51	11.06	6.55	1046.1	1134.2
17.52	11.06	6.55	1046.4	1134.5
17.53	11.06	6.55	1046.2	1135.0
17.54	11.08	6.56	1046.3	1134.1
17.55	11.06	6.55	1046.2	1134.7
17.56	11.04	6.54	1046.4	1135.2
17.57	11.06	6.55	1046.5	1134.8
17.58	11.05	6.54	1046.6	1134.4
17.59	11.08	6.55	1046.4	1134.6
17.6	11.07	6.55	1046.5	1135.3
17.61	11.06	6.54	1046.2	1134.8
17.62	11.05	6.54	1046.3	1135.1
17.63	11.06	6.54	1046.4	1135.2
17.64	11.06	6.54	1046.4	1135.4
17.65	11.06	6.54	1046.4	1135.5
17.66	11.05	6.53	1046.3	1135.7
17.67	11.06	6.53	1046.2	1135.2
17.68	11.07	6.54	1046.2	1135.6
17.69	11.07	6.54	1046.3	1135.6
17.7	11.05	6.52	1046.4	1135.5
17.71	11.05	6.52	1046.4	1135.5
17.72	11.06	6.54	1046.2	1136.0
17.73	11.06	6.53	1046.4	1135.4
17.74	11.04	6.52	1046.2	1135.3
17.75	11.06	6.52	1046.3	1135.7
17.76	11.06	6.53	1046.4	1136.2
17.77	11.07	6.53	1046.2	1136.0
17.78	11.04	6.52	1046.4	1135.8
17.79	11.05	6.52	1046.3	1135.9
17.8	11.07	6.53	1046.2	1136.1
17.81	11.07	6.52	1046.3	1135.8
17.82	11.04	6.51	1046.3	1135.7
17.83	11.05	6.51	1046.2	1136.0
17.84	11.07	6.52	1046.3	1136.5
17.85	11.08	6.52	1046.3	1136.4
17.86	11.05	6.51	1046.3	1136.3
17.87	11.06	6.51	1046.1	1136.2
17.88	11.06	6.51	1046.2	1136.2
17.89	11.04	6.5	1046.3	1136.5
17.9	11.06	6.51	1046.4	1136.3
17.91	11.07	6.51	1046.4	1136.4
17.92	11.05	6.5	1046.3	1136.6
17.93	11.05	6.5	1046.2	1136.5
17.94	11.04	6.49	1046.4	1136.7
17.95	11.05	6.5	1046.3	1136.7
17.96	11.06	6.5	1046.3	1136.7
17.97	11.06	6.5	1046.4	1136.9
17.98	11.05	6.5	1046.4	1136.4
17.99	11.05	6.49	1046.3	1136.2
18.0	11.07	6.5	1046.5	1136.8
18.01	11.06	6.5	1046.2	1137.0
18.02	11.06	6.49	1046.4	1136.5
18.03	11.05	6.49	1046.6	1137.1
18.04	11.06	6.49	1046.5	1137.3
18.05	11.06	6.49	1046.4	1136.9
18.06	11.07	6.49	1046.2	1136.6
18.07	11.06	6.49	1046.4	1137.1
18.08	11.07	6.49	1046.4	1137.3
18.09	11.06	6.49	1046.5	1137.0
18.1	11.06	6.48	1046.2	1137.1
18.11	11.05	6.48	1046.4	1138.1
18.12	11.04	6.47	1046.5	1137.6
18.13	11.06	6.48	1046.4	1137.9
18.14	11.07	6.48	1046.2	1137.5
18.15	11.07	6.48	1046.4	1138.1
18.16	11.06	6.48	1046.4	1138.0
18.17	11.06	6.48	1046.5	1137.5
18.18	11.05	6.47	1046.4	1137.5
18.19	11.06	6.47	1046.4	1138.0
18.2	11.07	6.48	1046.4	1137.8
18.21	11.07	6.48	1046.4	1138.0
18.22	11.05	6.47	1046.6	1137.9
18.23	11.06	6.47	1046.3	1137.9
18.24	11.05	6.46	1046.2	1138.3
18.25	11.04	6.46	1046.6	1138.4
18.26	11.06	6.47	1046.3	1137.8
18.27	11.08	6.48	1046.3	1138.8
18.28	11.05	6.46	1046.3	1138.0
18.29	11.06	6.46	1046.3	1138.4
18.3	11.05	6.46	1046.6	1138.2
18.31	11.07	6.47	1046.5	1138.5
18.32	11.07	6.46	1046.4	1138.2
18.33	11.05	6.46	1046.5	1138.3
18.34	11.06	6.46	1046.4	1138.6
18.35	11.06	6.46	1046.6	1138.8
18.36	11.06	6.45	1046.8	1138.4
18.37	11.07	6.46	1046.6	1139.0
18.38	11.06	6.45	1046.7	1138.3
18.39	11.06	6.45	1046.8	1139.1
18.4	11.05	6.45	1046.6	1138.7
18.41	11.06	6.45	1046.6	1138.7
18.42	11.06	6.46	1046.8	1139.0
18.43	11.06	6.44	1046.5	1138.7
18.44	11.04	6.44	1046.7	1138.9
18.45	11.07	6.45	1046.7	1138.7
18.46	11.07	6.45	1046.6	1139.0
18.47	11.06	6.44	1046.8	1139.2
18.48	11.04	6.43	1046.6	1139.2
18.49	11.05	6.44	1046.5	1139.6
18.5	11.06	6.44	1046.6	1139.1
18.51	11.05	6.43	1046.8	1139.0
18.52	11.07	6.44	1046.9	1139.3
18.53	11.07	6.44	1046.8	1139.6
18.54	11.05	6.43	1046.6	1139.4
18.55	11.05	6.43	1046.8	1139.6
18.56	11.05	6.43	1046.9	1139.8
18.57	11.05	6.43	1046.8	1139.6
18.58	11.06	6.43	1047.0	1139.4
18.59	11.07	6.43	1046.9	1139.6
18.6	11.07	6.43	1046.8	1139.6
18.61	11.06	6.43	1046.7	1139.5
18.62	11.06	6.43	1047.1	1139.5
18.63	11.06	6.43	1047.0	1139.7
18.64	11.06	6.42	1046.8	1139.8
18.65	11.05	6.42	1047.1	1139.5
18.66	11.05	6.42	1047.1	1140.0
18.67	11.07	6.42	1047.1	1140.5
18.68	11.08	6.43	1047.1	1140.4
18.69	11.05	6.42	1047.2	1140.0
18.7	11.05	6.41	1047.2	1140.0
18.71	11.04	6.42	1046.7	1140.3
18.72	11.07	6.42	1047.0	1140.1
18.73	11.05	6.41	1046.9	1139.9
18.74	11.05	6.41	1046.9	1140.1
18.75	11.05	6.41	1047.0	1140.0
18.76	11.05	6.41	1047.1	1140.3
18.77	11.04	6.4	1046.9	1140.6
18.78	11.07	6.41	1047.1	1140.2
18.79	11.06	6.41	1047.0	1141.0
18.8	11.06	6.41	1047.3	1140.6
18.81	11.05	6.4	1047.2	1140.5
18.82	11.05	6.4	1047.3	1140.7
18.83	11.06	6.41	1047.4	1141.0
18.84	11.06	6.4	1047.5	1140.9
18.85	11.06	6.4	1047.5	1140.5
18.86	11.06	6.4	1047.2	1141.0
18.87	11.05	6.39	1046.8	1141.1
18.88	11.05	6.4	1047.1	1141.1
18.89	11.07	6.4	1047.2	1141.2
18.9	11.06	6.4	1047.3	1141.0
18.91	11.05	6.39	1047.0	1141.2
18.92	11.06	6.39	1047.0	1141.4
18.93	11.06	6.4	1047.1	1140.9
18.94	11.05	6.4	1047.3	1141.1
18.95	11.06	6.39	1047.1	1141.6
18.96	11.06	6.39	1047.1	1141.4
18.97	11.05	6.39	1047.2	1140.7
18.98	11.04	6.38	1047.3	1141.4
18.99	11.06	6.39	1047.3	1141.4
19.0	11.06	6.39	1047.2	1141.2
19.01	11.07	6.39	1047.2	1141.0
19.02	11.06	6.39	1047.5	1141.4
19.03	11.06	6.38	1047.2	1141.5
19.04	11.04	6.38	1047.3	1141.2
19.05	11.05	6.38	1047.5	1141.2
19.06	11.04	6.38	1047.5	1141.4
19.07	11.05	6.37	1047.3	1141.6
19.08	11.05	6.38	1047.5	1141.6
19.09	11.05	6.37	1047.6	1142.0
19.1	11.05	6.37	1047.6	1141.8
19.11	11.07	6.38	1047.6	1142.0
19.12	11.07	6.38	1047.5	1141.9
19.13	11.06	6.37	1047.2	1141.8
19.14	11.06	6.38	1047.3	1142.0
19.15	11.07	6.37	1047.2	1142.0
19.16	11.05	6.37	1047.6	1142.3
19.17	11.06	6.37	1047.4	1142.3
19.18	11.04	6.36	1047.3	1142.0
19.19	11.06	6.36	1047.4	1142.3
19.2	11.06	6.37	1047.4	1142.0
19.21	11.05	6.36	1047.3	1142.4
19.22	11.06	6.37	1047.5	1142.7
19.23	11.06	6.37	1047.5	1142.3
19.24	11.06	6.37	1047.5	1142.1
19.25	11.08	6.37	1047.7	1142.2
19.26	11.06	6.36	1047.4	1142.7
19.27	11.03	6.35	1047.4	1142.6
19.28	11.05	6.36	1047.5	1143.1
19.29	11.05	6.35	1047.3	1142.5
19.3	11.05	6.35	1047.4	1142.8
19.31	11.07	6.36	1047.5	1142.6
19.32	11.05	6.35	1047.5	1143.6
19.33	11.05	6.35	1047.2	1143.7
19.34	11.05	6.35	1047.3	1143.4
19.35	11.06	6.35	1047.4	1142.9
19.36	11.06	6.36	1047.5	1143.4
19.37	11.05	6.35	1047.3	1142.8
19.38	11.06	6.35	1047.5	1143.4
19.39	11.06	6.35	1047.6	1143.2
19.4	11.06	6.35	1047.6	1143.4
19.41	11.05	6.35	1047.7	1143.8
19.42	11.07	6.35	1047.4	1144.0
19.43	11.04	6.34	1047.5	1143.6
19.44	11.05	6.34	1047.4	1143.2
19.45	11.06	6.35	1047.4	1143.9
19.46	11.06	6.34	1047.4	1143.6
19.47	11.04	6.34	1047.4	1143.4
19.48	11.07	6.34	1047.4	1144.4
19.49	11.05	6.34	1047.6	1143.5
19.5	11.06	6.34	1047.3	1144.2
19.51	11.06	6.34	1047.6	1144.4
19.52	11.06	6.34	1047.8	1144.6
19.53	11.06	6.34	1047.5	1143.5
19.54	11.05	6.33	1047.7	1144.6
19.55	11.04	6.33	1047.5	1144.6
19.56	11.06	6.33	1047.5	1144.7
19.57	11.04	6.32	1047.7	1143.8
19.58	11.06	6.33	1047.6	1144.4
19.59	11.07	6.33	1047.6	1144.3
19.6	11.06	6.33	1047.5	1144.6
19.61	11.06	6.33	1047.5	1144.5
19.62	11.07	6.33	1047.6	1144.7
19.63	11.05	6.32	1047.6	1144.8
19.64	11.06	6.32	1047.5	1144.7
19.65	11.06	6.32	1047.4	1144.3
19.66	11.04	6.31	1047.5	1144.8
19.67	11.05	6.31	1047.7	1144.6
19.68	11.05	6.32	1047.7	1144.8
19.69	11.04	6.31	1047.5	1144.6
19.7	11.04	6.31	1047.5	1145.0
19.71	11.04	6.31	1047.7	1144.7
19.72	11.05	6.31	1047.6	1144.5
19.73	11.04	6.31	1047.5	1144.4
19.74	11.05	6.31	1047.5	1144.8
19.75	11.06	6.32	1047.5	1144.6
19.76	11.06	6.32	1047.6	1144.6
19.77	11.06	6.31	1047.6	1144.7
19.78	11.06	6.32	1047.6	1144.8
19.79	11.07	6.31	1047.6	1144.6
19.8	11.05	6.31	1047.6	1144.6
19.81	11.07	6.31	1047.6	1144.7
19.82	11.06	6.31	1047.6	1145.0
19.83	11.07	6.31	1047.6	1145.0
19.84	11.07	6.31	1047.5	1144.7
19.85	11.07	6.3	1047.4	1145.0
19.86	11.05	6.3	1047.5	1144.6
19.87	11.05	6.3	1047.8	1145.0
19.88	11.06	6.3	1047.6	1144.5
19.89	11.05	6.3	1047.5	1144.7
19.9	11.05	6.3	1047.6	1145.0
19.91	11.06	6.3	1047.9	1144.8
19.92	11.04	6.29	1047.8	1144.9
19.93	11.06	6.3	1047.5	1144.7
19.94	11.05	6.29	1047.5	1144.9
19.95	11.05	6.29	1047.5	1145.1
19.96	11.05	6.29	1047.4	1145.1
19.97	11.05	6.29	1047.5	1145.0
19.98	11.04	6.29	1047.4	1145.0
19.99	11.05	6.28	1047.6	1145.2
20.0	11.05	6.29	1047.7	1145.0
20.01	11.05	6.28	1047.3	1145.2
20.02	11.05	6.28	1047.4	1145.1
20.03	11.05	6.29	1047.5	1144.8
20.04	11.04	6.28	1047.3	1144.9
20.05	11.05	6.29	1047.6	1145.1
20.06	11.06	6.28	1047.5	1145.6
20.07	11.05	6.28	1047.6	1144.9
20.08	11.07	6.29	1047.6	1144.9
20.09	11.05	6.28	1047.6	1144.9
20.1	11.06	6.28	1047.7	1145.1
20.11	11.06	6.28	1047.6	1145.8
20.12	11.06	6.28	1047.5	1145.4
20.13	11.07	6.29	1047.5	1145.2
20.14	11.05	6.28	1047.6	1145.4
20.15	11.06	6.28	1047.7	1145.0
20.16	11.06	6.28	1047.8	1145.2
20.17	11.06	6.28	1047.7	1145.3
20.18	11.07	6.28	1047.7	1145.0
20.19	11.04	6.27	1047.6	1145.6
20.2	11.07	6.28	1047.6	1145.2
20.21	11.06	6.27	1047.6	1145.3
20.22	11.06	6.27	1047.7	1145.6
20.23	11.06	6.27	1047.7	1145.3
20.24	11.07	6.27	1047.8	1145.2
20.25	11.05	6.27	1047.8	1145.3
20.26	11.05	6.26	1047.9	1145.6
20.27	11.05	6.26	1047.8	1145.5
20.28	11.06	6.26	1047.9	1145.8
20.29	11.05	6.26	1047.9	1145.5
20.3	11.06	6.27	1047.9	1146.0
20.31	11.06	6.26	1047.8	1145.8
20.32	11.05	6.26	1047.9	1145.6
20.33	11.04	6.26	1047.8	1146.3
20.34	11.05	6.26	1047.8	1146.1
20.35	11.05	6.25	1047.7	1145.6
20.36	11.07	6.26	1047.8	1145.8
20.37	11.07	6.26	1047.8	1146.1
20.38	11.06	6.26	1047.9	1145.9
20.39	11.05	6.25	1047.9	1145.8
20.4	11.05	6.25	1048.0	1145.9
20.41	11.05	6.25	1048.0	1145.6
20.42	11.05	6.25	1047.8	1146.1
20.43	11.05	6.25	1047.8	1146.1
20.44	11.07	6.26	1047.7	1145.5
20.45	11.07	6.25	1047.7	1146.1
20.46	11.05	6.25	1047.9	1145.9
20.47	11.05	6.24	1048.0	1145.8
20.48	11.04	6.24	1048.0	1146.1
20.49	11.06	6.25	1047.9	1146.3
20.5	11.04	6.24	1047.8	1146.5
20.51	11.05	6.24	1047.8	1146.0
20.52	11.05	6.25	1047.9	1146.0
20.53	11.06	6.25	1047.9	1145.9
20.54	11.04	6.24	1048.0	1146.5
20.55	11.04	6.23	1047.8	1146.0
20.56	11.05	6.24	1048.2	1145.9
20.57	11.07	6.24	1048.1	1145.9
20.58	11.06	6.24	1048.2	1146.3
20.59	11.06	6.24	1048.0	1146.3
20.6	11.05	6.23	1048.1	1146.0
20.61	11.05	6.23	1048.1	1146.4
20.62	11.05	6.23	1048.2	1146.7
20.63	11.06	6.23	1048.0	1146.5
20.64	11.06	6.24	1048.1	1146.3
20.65	11.06	6.23	1048.0	1146.8
20.66	11.04	6.22	1047.8	1146.5
20.67	11.06	6.23	1047.7	1146.9
20.68	11.06	6.23	1047.9	1146.3
20.69	11.05	6.23	1047.8	1146.5
20.7	11.05	6.23	1047.7	1146.9
20.71	11.04	6.22	1047.5	1146.4
20.72	11.06	6.23	1047.9	1146.7
20.73	11.06	6.23	1047.7	1146.7
20.74	11.05	6.22	1048.0	1146.4
20.75	11.06	6.22	1048.4	1146.0
20.76	11.06	6.22	1048.2	1146.7
20.77	11.06	6.23	1048.4	1146.8
20.78	11.06	6.22	1048.1	1146.5
20.79	11.05	6.22	1048.1	1146.7
20.8	11.06	6.22	1048.1	1146.8
20.81	11.05	6.22	1048.2	1146.6
20.82	11.05	6.21	1048.1	1147.2
20.83	11.05	6.22	1047.8	1146.3
20.84	11.05	6.21	1048.1	1146.6
20.85	11.05	6.21	1047.8	1147.1
20.86	11.06	6.22	1047.9	1147.0
20.87	11.06	6.22	1047.9	1146.9
20.88	11.07	6.22	1047.8	1146.9
20.89	11.04	6.2	1047.8	1147.1
20.9	11.06	6.21	1047.8	1147.2
20.91	11.05	6.21	1047.9	1147.3
20.92	11.06	6.22	1048.0	1146.9
20.93	11.06	6.22	1047.8	1146.7
20.94	11.05	6.2	1047.7	1146.9
20.95	11.05	6.2	1047.9	1146.5
20.96	11.06	6.21	1047.5	1147.0
20.97	11.06	6.21	1047.6	1147.0
20.98	11.05	6.21	1047.6	1146.9
20.99	11.05	6.2	1047.9	1146.8
21.0	11.06	6.2	1047.9	1147.2
21.01	11.05	6.2	1047.8	1147.1
21.02	11.05	6.2	1048.0	1147.2
21.03	11.05	6.2	1047.7	1147.1
21.04	11.06	6.2	1048.0	1146.9
21.05	11.06	6.2	1047.8	1147.0
21.06	11.04	6.2	1047.7	1147.3
21.07	11.06	6.2	1047.7	1147.1
21.08	11.06	6.2	1047.9	1147.4
21.09	11.06	6.2	1048.1	1147.2
21.1	11.05	6.19	1047.9	1147.4
21.11	11.05	6.19	1047.9	1146.9
21.12	11.05	6.19	1048.0	1147.5
21.13	11.06	6.19	1048.0	1146.8
21.14	11.05	6.19	1047.9	1147.2
21.15	11.06	6.19	1047.9	1147.4
21.16	11.06	6.19	1047.9	1147.2
21.17	11.06	6.19	1047.9	1147.1
21.18	11.05	6.19	1048.1	1147.5
21.19	11.06	6.19	1048.1	1147.2
21.2	11.05	6.19	1048.1	1147.7
21.21	11.05	6.19	1048.1	1147.3
21.22	11.05	6.18	1048.0	1147.2
21.23	11.06	6.19	1047.9	1147.2
21.24	11.06	6.19	1048.1	1147.7
21.25	11.07	6.18	1048.0	1147.8
21.26	11.04	6.18	1048.0	1147.7
21.27	11.06	6.19	1048.2	1147.9
21.28	11.05	6.18	1048.2	1147.7
21.29	11.06	6.18	1048.1	1147.4
21.3	11.07	6.18	1048.3	1147.3
21.31	11.05	6.18	1048.1	1147.5
21.32	11.05	6.18	1048.1	1147.8
21.33	11.06	6.18	1048.1	1147.5
21.34	11.07	6.18	1048.1	1147.5
21.35	11.05	6.17	1048.1	1147.8
21.36	11.06	6.18	1048.3	1148.0
21.37	11.07	6.18	1048.2	1148.2
21.38	11.06	6.17	1048.3	1147.6
21.39	11.06	6.18	1047.9	1147.8
21.4	11.07	6.18	1048.2	1148.0
21.41	11.05	6.17	1048.2	1147.6
21.42	11.06	6.17	1048.0	1147.4
21.43	11.05	6.17	1048.3	1148.1
21.44	11.05	6.16	1048.3	1147.9
21.45	11.06	6.17	1048.4	1147.8
21.46	11.07	6.17	1048.3	1147.8
21.47	11.05	6.16	1048.4	1147.7
21.48	11.06	6.17	1048.5	1147.5
21.49	11.05	6.17	1048.4	1147.7
21.5	11.05	6.16	1048.5	1147.4
21.51	11.06	6.17	1048.4	1148.2
21.52	11.06	6.16	1048.2	1148.3
21.53	11.06	6.16	1048.3	1147.8
21.54	11.04	6.15	1048.3	1147.8
21.55	11.05	6.16	1048.2	1148.1
21.56	11.06	6.16	1048.1	1148.2
21.57	11.05	6.16	1048.1	1148.2
21.58	11.06	6.16	1048.2	1147.7
21.59	11.05	6.16	1048.1	1148.2
21.6	11.06	6.16	1048.0	1148.0
21.61	11.04	6.15	1047.9	1148.0
21.62	11.06	6.16	1048.2	1147.9
21.63	11.06	6.16	1048.0	1148.2
21.64	11.04	6.15	1048.3	1148.2
21.65	11.06	6.15	1047.9	1148.1
21.66	11.05	6.15	1048.2	1147.9
21.67	11.04	6.15	1048.2	1148.0
21.68	11.06	6.15	1048.4	1147.9
21.69	11.05	6.15	1048.3	1148.2
21.7	11.05	6.15	1048.6	1148.0
21.71	11.05	6.15	1048.1	1148.4
21.72	11.07	6.15	1048.4	1148.3
21.73	11.05	6.15	1048.2	1148.4
21.74	11.05	6.14	1048.0	1147.9
21.75	11.06	6.15	1048.1	1148.4
21.76	11.06	6.15	1048.1	1148.1
21.77	11.05	6.14	1048.2	1148.3
21.78	11.05	6.14	1048.2	1148.2
21.79	11.06	6.14	1048.0	1148.5
21.8	11.05	6.14	1048.2	1148.1
21.81	11.06	6.14	1048.0	1148.2
21.82	11.06	6.14	1048.1	1148.5
21.83	11.05	6.13	1047.9	1148.1
21.84	11.05	6.13	1047.8	1148.4
21.85	11.06	6.14	1047.8	1148.4
21.86	11.07	6.14	1047.7	1148.1
21.87	11.06	6.14	1047.8	1148.7
21.88	11.05	6.13	1047.9	1148.4
21.89	11.06	6.14	1048.0	1148.4
21.9	11.05	6.13	1047.9	1148.5
21.91	11.06	6.13	1047.8	1148.5
21.92	11.05	6.13	1048.0	1148.8
21.93	11.05	6.13	1048.1	1148.8
21.94	11.06	6.13	1048.0	1148.5
21.95	11.06	6.13	1048.0	1148.6
21.96	11.04	6.13	1048.1	1148.6
21.97	11.06	6.13	1048.1	1148.6
21.98	11.05	6.13	1048.3	1148.2
21.99	11.06	6.13	1048.2	1148.1
22.0	11.06	6.13	1048.2	1148.6
22.01	11.06	6.13	1048.2	1148.8
22.02	11.06	6.13	1048.0	1148.3
22.03	11.05	6.12	1048.0	1148.1
22.04	11.06	6.13	1048.3	1148.7
22.05	11.06	6.13	1048.4	1148.5
22.06	11.06	6.12	1048.3	1148.6
22.07	11.05	6.12	1048.2	1148.9
22.08	11.06	6.12	1048.2	1149.1
22.09	11.06	6.12	1048.0	1148.5
22.1	11.06	6.12	1048.2	1149.4
22.11	11.04	6.12	1048.0	1149.0
22.12	11.07	6.12	1048.1	1148.6
22.13	11.05	6.12	1047.9	1148.4
22.14	11.06	6.12	1048.0	1149.1
22.15	11.05	6.11	1048.0	1149.0
22.16	11.06	6.12	1048.2	1149.0
22.17	11.06	6.11	1048.2	1148.7
22.18	11.05	6.11	1048.1	1148.4
22.19	11.05	6.11	1048.5	1148.7
22.2	11.06	6.11	1048.2	1148.9
22.21	11.06	6.11	1048.3	1148.0
22.22	11.05	6.11	1048.1	1148.7
22.23	11.07	6.12	1048.0	1149.1
22.24	11.05	6.11	1048.1	1149.0
22.25	11.05	6.11	1047.8	1148.6
22.26	11.05	6.11	1047.8	1149.0
22.27	11.05	6.11	1048.0	1148.7
22.28	11.06	6.11	1047.9	1148.6
22.29	11.06	6.11	1048.2	1148.6
22.3	11.06	6.11	1048.0	1148.7
22.31	11.03	6.1	1048.3	1148.9
22.32	11.06	6.1	1048.5	1149.2
22.33	11.05	6.1	1048.3	1148.8
22.34	11.06	6.1	1048.5	1148.9
22.35	11.05	6.1	1048.4	1149.1
22.36	11.06	6.1	1048.6	1148.9
22.37	11.06	6.1	1048.4	1148.9
22.38	11.06	6.1	1048.4	1149.3
22.39	11.06	6.1	1048.2	1148.6
22.4	11.06	6.1	1048.1	1148.7
22.41	11.05	6.1	1048.2	1149.0
22.42	11.06	6.1	1048.2	1149.0
22.43	11.06	6.1	1048.1	1149.2
22.44	11.05	6.09	1048.0	1149.1
22.45	11.07	6.1	1048.3	1148.7
22.46	11.06	6.1	1048.2	1148.9
22.47	11.05	6.09	1048.3	1148.8
22.48	11.05	6.09	1048.3	1148.8
22.49	11.05	6.09	1048.0	1148.8
22.5	11.05	6.09	1048.4	1149.3
22.51	11.05	6.09	1048.0	1149.3
22.52	11.06	6.09	1048.3	1148.1
22.53	11.06	6.09	1048.0	1148.7
22.54	11.05	6.09	1048.1	1148.5
22.55	11.06	6.09	1048.0	1148.8
22.56	11.05	6.09	1048.0	1149.0
22.57	11.06	6.09	1048.3	1148.9
22.58	11.05	6.08	1048.1	1149.0
22.59	11.07	6.09	1048.0	1149.3
22.6	11.05	6.08	1048.0	1148.9
22.61	11.07	6.08	1048.2	1149.1
22.62	11.06	6.08	1048.1	1149.3
22.63	11.05	6.08	1048.0	1148.9
22.64	11.06	6.08	1048.3	1148.5
22.65	11.06	6.08	1048.0	1148.8
22.66	11.06	6.08	1048.0	1149.2
22.67	11.07	6.08	1048.2	1148.7
22.68	11.06	6.08	1048.1	1148.7
22.69	11.06	6.08	1048.0	1148.9
22.7	11.05	6.08	1048.0	1148.8
22.71	11.06	6.08	1047.8	1149.2
22.72	11.05	6.07	1047.7	1148.5
22.73	11.05	6.07	1047.8	1148.5
22.74	11.05	6.08	1047.7	1149.2
22.75	11.06	6.07	1047.6	1148.7
22.76	11.06	6.07	1047.7	1148.8
22.77	11.06	6.08	1047.9	1149.2
22.78	11.05	6.07	1047.8	1149.0
22.79	11.06	6.07	1047.8	1148.9
22.8	11.05	6.07	1048.0	1148.4
22.81	11.05	6.07	1048.0	1148.8
22.82	11.06	6.07	1047.9	1148.7
22.83	11.05	6.07	1047.8	1149.4
22.84	11.05	6.07	1047.8	1148.7
22.85	11.06	6.07	1047.7	1149.2
22.86	11.06	6.07	1047.8	1149.1
22.87	11.05	6.06	1047.9	1148.0
22.88	11.07	6.06	1048.0	1148.9
22.89	11.05	6.06	1048.0	1148.9
22.9	11.06	6.06	1048.0	1149.1
22.91	11.06	6.06	1048.0	1149.1
22.92	11.06	6.06	1048.0	1149.0
22.93	11.06	6.07	1048.1	1149.1
22.94	11.06	6.06	1048.2	1149.1
22.95	11.06	6.06	1048.0	1149.2
22.96	11.05	6.06	1048.2	1149.1
22.97	11.07	6.06	1048.3	1148.4
22.98	11.06	6.06	1048.2	1149.0
22.99	11.05	6.06	1048.2	1148.5
23.0	11.06	6.05	1048.3	1148.7
23.01	11.06	6.06	1048.0	1149.3
23.02	11.05	6.05	1048.0	1149.2
23.03	11.06	6.06	1048.2	1149.0
23.04	11.05	6.05	1048.1	1148.9
23.05	11.05	6.05	1048.3	1149.4
23.06	11.06	6.05	1048.1	1149.2
23.07	11.05	6.05	1048.1	1148.8
23.08	11.06	6.06	1048.2	1148.9
23.09	11.05	6.05	1048.0	1148.6
23.1	11.06	6.05	1048.1	1148.9
23.11	11.05	6.05	1048.1	1148.6
23.12	11.05	6.05	1048.0	1148.4
23.13	11.06	6.05	1047.7	1149.2
23.14	11.07	6.05	1047.8	1148.9
23.15	11.05	6.05	1047.8	1148.6
23.16	11.07	6.05	1047.8	1148.7
23.17	11.06	6.04	1047.7	1148.6
23.18	11.06	6.05	1048.0	1149.3
23.19	11.05	6.04	1047.8	1148.9
23.2	11.06	6.05	1047.8	1149.1
23.21	11.05	6.04	1047.7	1148.8
23.22	11.05	6.04	1047.6	1148.7
23.23	11.05	6.04	1048.0	1148.3
23.24	11.06	6.04	1047.6	1148.4
23.25	11.06	6.04	1047.8	1148.6
23.26	11.06	6.04	1047.7	1148.7
23.27	11.05	6.04	1047.8	1149.0
23.28	11.06	6.04	1047.4	1148.7
23.29	11.06	6.04	1047.4	1148.6
23.3	11.06	6.04	1047.7	1148.4
23.31	11.06	6.04	1047.4	1148.3
23.32	11.05	6.03	1047.7	1148.8
23.33	11.06	6.03	1047.5	1149.0
23.34	11.06	6.04	1047.3	1148.5
23.35	11.06	6.04	1047.5	1148.6
23.36	11.05	6.04	1047.4	1148.8
23.37	11.06	6.03	1047.3	1148.8
23.38	11.06	6.03	1047.4	1148.7
23.39	11.06	6.03	1047.6	1149.2
23.4	11.06	6.03	1047.3	1149.0
23.41	11.05	6.03	1047.3	1148.8
23.42	11.06	6.03	1047.3	1148.2
23.43	11.05	6.03	1047.4	1148.5
23.44	11.05	6.03	1047.2	1149.0
23.45	11.06	6.03	1047.3	1149.0
23.46	11.05	6.03	1047.2	1148.8
23.47	11.06	6.03	1047.2	1148.2
23.48	11.05	6.02	1047.3	1148.4
23.49	11.06	6.03	1047.4	1148.7
23.5	11.05	6.03	1047.3	1148.2
23.51	11.05	6.02	1047.2	1148.4
23.52	11.06	6.02	1047.3	1148.4
23.53	11.06	6.02	1047.2	1148.3
23.54	11.06	6.02	1047.1	1148.2
23.55	11.05	6.02	1047.2	1148.1
23.56	11.06	6.02	1047.2	1149.2
23.57	11.05	6.02	1047.0	1148.7
23.58	11.05	6.02	1047.2	1148.4
23.59	11.06	6.02	1047.2	1148.7
23.6	11.06	6.02	1047.4	1148.5
23.61	11.06	6.02	1047.2	1148.8
23.62	11.06	6.02	1047.2	1148.2
23.63	11.06	6.02	1047.1	1148.6
23.64	11.06	6.02	1047.2	1149.0
23.65	11.05	6.01	1047.3	1148.8
23.66	11.07	6.02	1047.6	1148.5
23.67	11.06	6.02	1047.3	1148.7
23.68	11.06	6.02	1047.4	1148.4
23.69	11.05	6.01	1047.2	1148.8
23.7	11.06	6.01	1047.2	1148.5
23.71	11.06	6.01	1047.6	1148.8
23.72	11.06	6.01	1047.2	1148.9
23.73	11.05	6.01	1047.5	1148.5
23.74	11.06	6.01	1047.2	1148.9
23.75	11.05	6.01	1047.4	1148.9
23.76	11.06	6.01	1047.3	1149.1
23.77	11.05	6.01	1047.2	1148.8
23.78	11.06	6.01	1047.0	1148.5
23.79	11.04	6.01	1046.9	1148.8
23.8	11.05	6.01	1047.1	1148.8
23.81	11.06	6.01	1047.0	1149.2
23.82	11.05	6.01	1047.0	1148.4
23.83	11.06	6.01	1046.9	1149.0
23.84	11.05	6.0	1047.0	1149.0
23.85	11.06	6.0	1046.9	1148.5
23.86	11.06	6.01	1046.7	1148.8
23.87	11.05	6.0	1047.0	1148.4
23.88	11.06	6.0	1047.3	1148.9
23.89	11.06	6.0	1047.0	1148.5
23.9	11.07	6.0	1047.1	1148.6
23.91	11.06	6.0	1047.2	1148.6
23.92	11.06	6.0	1046.8	1148.5
23.93	11.07	6.0	1047.0	1148.7
23.94	11.06	6.0	1047.1	1148.7
23.95	11.06	6.0	1046.9	1148.6
23.96	11.05	6.0	1047.1	1148.8
23.97	11.06	6.0	1047.1	1148.9
23.98	11.05	6.0	1047.1	1148.7
23.99	11.06	6.0	1047.2	1149.0
24.0	11.05	6.0	1047.0	1148.7
24.01	11.06	6.0	1047.0	1148.8
24.02	11.05	5.99	1047.0	1148.6
24.03	11.06	5.99	1047.1	1148.7
24.04	11.06	5.99	1047.3	1148.3
24.05	11.06	5.99	1046.8	1148.0
24.06	11.05	5.99	1046.9	1148.2
24.07	11.06	5.99	1046.8	1148.4
24.08	11.05	5.99	1046.8	1148.4
24.09	11.07	5.99	1047.1	1148.2
24.1	11.06	5.99	1046.9	1148.4
24.11	11.07	5.99	1046.9	1148.5
24.12	11.05	5.99	1047.0	1148.1
24.13	11.05	5.99	1046.8	1148.3
24.14	11.06	5.99	1046.7	1148.1
24.15	11.06	5.99	1046.7	1148.2
24.16	11.06	5.99	1046.8	1148.6
24.17	11.06	5.98	1046.7	1148.0
24.18	11.05	5.98	1046.8	1148.6
24.19	11.07	5.99	1046.9	1148.6
24.2	11.06	5.99	1046.8	1148.5
24.21	11.05	5.98	1046.8	1148.0
24.22	11.05	5.98	1046.7	1148.0
24.23	11.06	5.98	1046.5	1148.4
24.24	11.05	5.98	1046.7	1148.5
24.25	11.06	5.98	1046.6	1148.4
24.26	11.04	5.98	1046.7	1148.2
24.27	11.05	5.98	1046.8	1148.4
24.28	11.06	5.98	1046.8	1148.6
24.29	11.05	5.97	1046.8	1147.8
24.3	11.05	5.98	1046.7	1148.1
24.31	11.05	5.98	1047.0	1148.6
24.32	11.06	5.98	1046.8	1148.4
24.33	11.06	5.98	1046.7	1148.2
24.34	11.05	5.97	1046.9	1148.6
24.35	11.07	5.98	1046.6	1148.4
24.36	11.05	5.97	1046.5	1148.2
24.37	11.06	5.97	1046.9	1147.7
24.38	11.07	5.97	1046.8	1148.1
24.39	11.06	5.97	1046.6	1148.0
24.4	11.07	5.98	1046.6	1148.1
24.41	11.04	5.97	1046.5	1148.0
24.42	11.06	5.97	1046.7	1147.8
24.43	11.06	5.97	1046.6	1147.7
24.44	11.06	5.97	1046.6	1148.0
24.45	11.06	5.97	1046.7	1147.9
24.46	11.06	5.97	1046.9	1147.9
24.47	11.06	5.97	1046.7	1148.3
24.48	11.07	5.97	1046.8	1148.0
24.49	11.06	5.97	1046.4	1147.9
24.5	11.06	5.97	1046.5	1147.7
24.51	11.06	5.97	1046.6	1148.5
24.52	11.05	5.96	1046.5	1148.2
24.53	11.06	5.96	1046.5	1147.9
24.54	11.05	5.96	1046.5	1148.4
24.55	11.06	5.96	1046.6	1148.0
24.56	11.06	5.96	1046.7	1147.1
24.57	11.06	5.96	1046.6	1147.6
24.58	11.05	5.96	1046.7	1148.1
24.59	11.05	5.96	1046.9	1147.6
24.6	11.05	5.96	1046.7	1148.0
24.61	11.05	5.96	1047.0	1147.6
24.62	11.05	5.96	1047.0	1148.2
24.63	11.07	5.96	1046.7	1148.0
24.64	11.06	5.96	1046.7	1147.6
24.65	11.06	5.96	1046.4	1147.9
24.66	11.04	5.95	1046.5	1148.3
24.67	11.06	5.95	1046.3	1148.2
24.68	11.06	5.96	1046.3	1148.0
24.69	11.06	5.96	1046.5	1147.8
24.7	11.06	5.96	1046.4	1148.1
24.71	11.06	5.96	1046.2	1148.0
24.72	11.05	5.95	1046.6	1148.1
24.73	11.06	5.95	1046.6	1147.8
24.74	11.06	5.96	1046.4	1148.1
24.75	11.06	5.96	1046.2	1148.2
24.76	11.06	5.96	1046.4	1147.9
24.77	11.06	5.95	1046.3	1148.2
24.78	11.05	5.95	1046.4	1148.2
24.79	11.07	5.95	1046.4	1148.2
24.8	11.06	5.95	1046.4	1148.0
24.81	11.06	5.95	1046.4	1148.1
24.82	11.05	5.95	1046.6	1148.2
24.83	11.06	5.95	1046.2	1148.0
24.84	11.05	5.95	1046.4	1148.3
24.85	11.06	5.95	1046.3	1147.7
24.86	11.06	5.95	1046.4	1148.2
24.87	11.07	5.95	1046.5	1147.8
24.88	11.05	5.94	1046.2	1147.8
24.89	11.05	5.94	1046.4	1147.9
24.9	11.06	5.94	1046.2	1147.8
24.91	11.05	5.94	1046.1	1147.5
24.92	11.06	5.94	1046.2	1147.4
24.93	11.05	5.94	1046.1	1147.4
24.94	11.06	5.94	1046.2	1147.9
24.95	11.06	5.94	1046.2	1147.5
24.96	11.06	5.94	1046.3	1147.5
24.97	11.06	5.94	1046.2	1147.7
24.98	11.05	5.94	1046.1	1147.9
24.99	11.05	5.94	1046.1	1147.5
25.0	11.05	5.94	1046.2	1147.3
25.01	11.05	5.94	1046.2	1147.9
25.02	11.06	5.94	1046.1	1147.7
25.03	11.05	5.94	1046.2	1147.9
25.04	11.06	5.94	1046.3	1147.6
25.05	11.06	5.94	1046.1	1147.4
25.06	11.06	5.94	1046.2	1147.8
25.07	11.06	5.94	1046.2	1147.8
25.08	11.05	5.94	1046.1	1147.4
25.09	11.05	5.93	1046.2	1148.0
25.1	11.07	5.94	1046.3	1147.6
25.11	11.05	5.93	1046.2	1147.8
25.12	11.05	5.93	1046.1	1147.2
25.13	11.05	5.93	1046.2	1147.6
25.14	11.06	5.93	1045.9	1147.6
25.15	11.05	5.93	1045.9	1147.5
25.16	11.06	5.93	1046.2	1147.1
25.17	11.06	5.93	1046.0	1147.0
25.18	11.06	5.93	1046.0	1147.2
25.19	11.05	5.93	1045.9	1147.5
25.2	11.06	5.93	1046.1	1147.1
25.21	11.06	5.93	1045.9	1147.5
25.22	11.05	5.92	1046.2	1147.6
25.23	11.06	5.93	1046.2	1147.0
25.24	11.06	5.93	1046.1	1147.0
25.25	11.07	5.93	1046.0	1147.0
25.26	11.06	5.93	1046.0	1147.4
25.27	11.05	5.92	1046.3	1147.4
25.28	11.06	5.93	1046.2	1146.8
25.29	11.05	5.92	1046.2	1147.6
25.3	11.06	5.93	1046.0	1147.5
25.31	11.06	5.92	1045.9	1147.0
25.32	11.05	5.92	1045.8	1146.8
25.33	11.05	5.92	1045.9	1147.4
25.34	11.06	5.92	1046.3	1147.3
25.35	11.06	5.92	1046.0	1147.1
25.36	11.06	5.92	1046.0	1146.9
25.37	11.06	5.92	1046.0	1146.8
25.38	11.05	5.92	1046.0	1147.0
25.39	11.05	5.92	1046.4	1146.7
25.4	11.05	5.92	1046.0	1146.5
25.41	11.06	5.92	1046.1	1147.0
25.42	11.06	5.92	1045.9	1147.0
25.43	11.06	5.92	1045.8	1146.9
25.44	11.06	5.92	1045.8	1146.8
25.45	11.06	5.91	1046.0	1146.8
25.46	11.06	5.92	1046.1	1146.8
25.47	11.06	5.92	1046.1	1146.4
25.48	11.06	5.92	1046.1	1146.1
25.49	11.06	5.91	1046.1	1146.9
25.5	11.06	5.91	1046.2	1146.7
25.51	11.07	5.92	1046.3	1147.0
25.52	11.05	5.91	1046.2	1146.4
25.53	11.05	5.91	1046.0	1146.9
25.54	11.06	5.91	1046.0	1147.3
25.55	11.06	5.91	1045.8	1146.4
25.56	11.05	5.91	1045.8	1146.6
25.57	11.06	5.91	1046.0	1147.0
25.58	11.06	5.91	1045.8	1146.7
25.59	11.07	5.91	1045.8	1146.3
25.6	11.07	5.91	1045.7	1146.4
25.61	11.06	5.91	1045.8	1146.4
25.62	11.06	5.91	1045.9	1146.5
25.63	11.06	5.91	1046.0	1146.2
25.64	11.06	5.91	1045.6	1146.6
25.65	11.06	5.91	1045.6	1146.4
25.66	11.06	5.9	1045.6	1146.6
25.67	11.06	5.9	1045.6	1146.4
25.68	11.06	5.91	1045.9	1146.5
25.69	11.06	5.91	1045.7	1146.7
25.7	11.07	5.91	1045.7	1145.8
25.71	11.06	5.9	1045.5	1145.6
25.72	11.06	5.9	1045.7	1146.4
25.73	11.05	5.9	1045.4	1146.6
25.74	11.06	5.9	1045.5	1146.1
25.75	11.06	5.9	1045.4	1146.5
25.76	11.05	5.9	1045.2	1146.2
25.77	11.07	5.9	1045.4	1146.2
25.78	11.06	5.9	1045.4	1145.8
25.79	11.05	5.9	1045.3	1146.2
25.8	11.06	5.9	1045.6	1146.1
25.81	11.05	5.9	1045.4	1145.9
25.82	11.05	5.9	1045.4	1146.4
25.83	11.06	5.9	1045.3	1146.6
25.84	11.06	5.89	1045.1	1146.1
25.85	11.04	5.9	1045.3	1145.8
25.86	11.06	5.89	1045.3	1145.8
25.87	11.05	5.89	1045.0	1146.1
25.88	11.07	5.9	1045.3	1146.1
25.89	11.05	5.89	1045.1	1145.4
25.9	11.06	5.89	1045.4	1145.8
25.91	11.06	5.89	1045.3	1146.0
25.92	11.07	5.9	1045.2	1146.0
25.93	11.06	5.9	1045.3	1146.0
25.94	11.05	5.89	1045.3	1146.0
25.95	11.06	5.89	1045.2	1145.9
25.96	11.06	5.89	1045.3	1146.2
25.97	11.06	5.89	1045.3	1146.0
25.98	11.06	5.89	1045.1	1145.6
25.99	11.06	5.89	1045.4	1145.9
26.0	11.05	5.89	1045.2	1146.2
26.01	11.06	5.89	1045.3	1145.9
26.02	11.06	5.89	1045.2	1146.0
26.03	11.06	5.89	1045.3	1145.9
26.04	11.05	5.88	1045.1	1145.4
26.05	11.05	5.88	1045.3	1146.0
26.06	11.07	5.89	1045.2	1145.7
26.07	11.06	5.89	1045.0	1145.5
26.08	11.04	5.88	1045.1	1145.5
26.09	11.05	5.88	1045.0	1145.8
26.1	11.06	5.88	1045.1	1145.7
26.11	11.05	5.88	1045.1	1146.2
26.12	11.06	5.88	1044.6	1145.6
26.13	11.06	5.88	1045.0	1145.6
26.14	11.05	5.88	1044.7	1145.6
26.15	11.05	5.88	1044.7	1145.7
26.16	11.06	5.88	1044.7	1145.9
26.17	11.07	5.88	1044.8	1145.8
26.18	11.05	5.88	1044.4	1145.6
26.19	11.06	5.88	1044.4	1145.5
26.2	11.05	5.87	1044.4	1145.0
26.21	11.06	5.88	1044.4	1145.1
26.22	11.05	5.88	1044.5	1145.2
26.23	11.07	5.88	1044.6	1145.7
26.24	11.06	5.88	1044.4	1145.4
26.25	11.06	5.88	1044.4	1145.3
26.26	11.06	5.88	1044.4	1145.4
26.27	11.06	5.87	1044.3	1145.1
26.28	11.06	5.88	1044.3	1145.3
26.29	11.06	5.88	1044.5	1145.1
26.3	11.06	5.88	1044.2	1145.6
26.31	11.05	5.87	1044.4	1145.4
26.32	11.06	5.88	1044.1	1145.2
26.33	11.06	5.87	1044.4	1145.1
26.34	11.07	5.88	1044.3	1145.2
26.35	11.06	5.87	1044.3	1145.5
26.36	11.07	5.87	1044.3	1145.4
26.37	11.06	5.87	1044.4	1145.0
26.38	11.07	5.87	1044.3	1145.2
26.39	11.07	5.88	1044.4	1145.0
26.4	11.07	5.87	1044.4	1145.2
26.41	11.05	5.87	1044.6	1144.8
26.42	11.05	5.87	1044.4	1144.9
26.43	11.06	5.87	1044.4	1145.1
26.44	11.08	5.87	1044.4	1145.3
26.45	11.05	5.87	1044.5	1144.9
26.46	11.05	5.87	1044.5	1144.9
26.47	11.05	5.87	1044.4	1144.9
26.48	11.06	5.87	1044.4	1145.0
26.49	11.06	5.87	1044.5	1144.9
26.5	11.07	5.87	1044.4	1145.1
26.51	11.05	5.86	1044.5	1144.8
26.52	11.06	5.86	1044.2	1145.0
26.53	11.05	5.86	1044.2	1144.4
26.54	11.06	5.86	1044.2	1144.7
26.55	11.06	5.86	1044.0	1144.7
26.56	11.06	5.86	1044.3	1145.0
26.57	11.05	5.86	1044.2	1144.8
26.58	11.06	5.86	1044.2	1145.0
26.59	11.06	5.86	1044.0	1144.9
26.6	11.06	5.86	1044.0	1144.8
26.61	11.05	5.86	1044.2	1144.8
26.62	11.06	5.86	1044.1	1145.1
26.63	11.05	5.86	1043.9	1144.9
26.64	11.06	5.86	1044.0	1144.6
26.65	11.07	5.86	1044.1	1144.7
26.66	11.06	5.86	1044.2	1144.6
26.67	11.06	5.86	1044.2	1144.7
26.68	11.06	5.86	1044.0	1144.8
26.69	11.06	5.85	1044.2	1144.4
26.7	11.06	5.86	1044.1	1144.8
26.71	11.07	5.86	1044.0	1144.8
26.72	11.06	5.86	1043.6	1144.7
26.73	11.06	5.86	1043.9	1144.8
26.74	11.05	5.85	1043.6	1145.2
26.75	11.06	5.86	1044.1	1144.9
26.76	11.06	5.86	1043.7	1144.8
26.77	11.06	5.85	1043.9	1144.8
26.78	11.06	5.85	1044.0	1144.9
26.79	11.06	5.85	1043.8	1144.8
26.8	11.05	5.85	1044.0	1144.6
26.81	11.07	5.85	1044.0	1144.5
26.82	11.05	5.85	1044.0	1144.8
26.83	11.06	5.85	1044.1	1144.7
26.84	11.05	5.85	1044.0	1144.6
26.85	11.06	5.85	1043.7	1144.4
26.86	11.05	5.85	1043.9	1144.6
26.87	11.05	5.85	1043.8	1144.8
26.88	11.06	5.85	1043.8	1144.5
26.89	11.06	5.85	1043.9	1144.5
26.9	11.05	5.85	1043.8	1144.7
26.91	11.06	5.85	1043.7	1144.4
26.92	11.06	5.85	1043.9	1144.5
26.93	11.06	5.85	1043.7	1144.3
26.94	11.07	5.85	1043.8	1144.7
26.95	11.07	5.85	1043.8	1144.6
26.96	11.05	5.84	1043.9	1144.5
26.97	11.07	5.85	1043.9	1144.0
26.98	11.06	5.85	1044.0	1144.3
26.99	11.06	5.85	1044.0	1144.4
27.0	11.06	5.84	1043.8	1144.5
27.01	11.06	5.84	1043.7	1144.4
27.02	11.07	5.84	1043.7	1144.6
27.03	11.05	5.84	1043.8	1144.7
27.04	11.06	5.84	1043.7	1144.4
27.05	11.06	5.84	1043.5	1144.0
27.06	11.06	5.84	1043.6	1144.3
27.07	11.08	5.84	1043.7	1143.8
27.08	11.06	5.84	1043.7	1144.1
27.09	11.05	5.84	1043.6	1144.0
27.1	11.06	5.84	1043.6	1143.9
27.11	11.06	5.84	1043.5	1143.4
27.12	11.07	5.84	1043.4	1142.9
27.13	11.06	5.84	1043.6	1144.0
27.14	11.06	5.84	1043.6	1144.1
27.15	11.06	5.84	1043.4	1142.9
27.16	11.05	5.83	1043.5	1142.8
27.17	11.06	5.84	1043.4	1143.4
27.18	11.07	5.84	1043.3	1144.2
27.19	11.06	5.84	1043.5	1144.5
27.2	11.06	5.83	1043.6	1142.7
27.21	11.05	5.83	1043.4	1143.8
27.22	11.07	5.83	1043.4	1143.3
27.23	11.06	5.84	1043.5	1143.1
27.24	11.06	5.83	1043.2	1142.7
27.25	11.06	5.83	1043.2	1142.6
27.26	11.06	5.83	1043.4	1142.5
27.27	11.05	5.83	1043.4	1143.2
27.28	11.06	5.83	1043.4	1143.0
27.29	11.06	5.83	1043.3	1142.7
27.3	11.06	5.83	1043.3	1142.7
27.31	11.05	5.83	1043.2	1143.2
27.32	11.06	5.83	1043.2	1142.4
27.33	11.04	5.83	1043.2	1142.9
27.34	11.05	5.83	1043.1	1143.1
27.35	11.06	5.83	1043.3	1142.2
27.36	11.05	5.83	1043.2	1142.9
27.37	11.06	5.83	1043.2	1143.0
27.38	11.07	5.83	1043.1	1142.2
27.39	11.06	5.83	1043.0	1142.6
27.4	11.06	5.83	1042.9	1142.5
27.41	11.07	5.83	1043.0	1142.4
27.42	11.07	5.83	1043.2	1142.5
27.43	11.07	5.83	1043.2	1142.9
27.44	11.07	5.83	1043.4	1142.5
27.45	11.06	5.82	1043.0	1142.8
27.46	11.07	5.82	1042.8	1141.9
27.47	11.07	5.82	1042.8	1142.0
27.48	11.05	5.82	1042.6	1142.1
27.49	11.07	5.82	1042.6	1142.1
27.5	11.06	5.83	1042.8	1142.5
27.51	11.07	5.83	1042.6	1142.7
27.52	11.05	5.82	1042.7	1141.6
27.53	11.06	5.82	1042.6	1142.3
27.54	11.05	5.82	1042.6	1142.2
27.55	11.07	5.82	1042.8	1142.1
27.56	11.05	5.82	1043.1	1142.0
27.57	11.06	5.82	1042.9	1142.0
27.58	11.06	5.82	1043.0	1142.0
27.59	11.06	5.82	1043.0	1141.9
27.6	11.06	5.82	1042.8	1142.0
27.61	11.07	5.82	1042.7	1141.7
27.62	11.06	5.82	1042.5	1141.5
27.63	11.06	5.81	1042.7	1141.5
27.64	11.06	5.82	1042.7	1142.3
27.65	11.06	5.82	1042.8	1141.9
27.66	11.06	5.82	1042.5	1141.3
27.67	11.07	5.82	1043.0	1141.4
27.68	11.05	5.82	1042.7	1141.7
27.69	11.07	5.82	1043.0	1141.5
27.7	11.06	5.81	1042.9	1141.6
27.71	11.06	5.82	1043.0	1141.4
27.72	11.06	5.81	1042.5	1141.8
27.73	11.06	5.81	1042.7	1141.5
27.74	11.06	5.81	1042.9	1141.9
27.75	11.06	5.81	1043.0	1141.8
27.76	11.07	5.81	1042.7	1142.1
27.77	11.07	5.81	1042.8	1142.0
27.78	11.07	5.81	1042.6	1141.6
27.79	11.06	5.81	1042.8	1141.5
27.8	11.06	5.81	1042.6	1141.4
27.81	11.06	5.81	1042.5	1141.3
27.82	11.06	5.81	1042.5	1141.5
27.83	11.05	5.8	1042.7	1141.2
27.84	11.06	5.81	1042.8	1141.2
27.85	11.06	5.81	1042.9	1141.2
27.86	11.06	5.81	1042.7	1141.8
27.87	11.05	5.81	1042.5	1141.5
27.88	11.07	5.81	1042.8	1141.6
27.89	11.05	5.81	1042.6	1141.2
27.9	11.06	5.81	1042.6	1140.9
27.91	11.05	5.81	1042.7	1141.0
27.92	11.07	5.81	1042.3	1141.0
27.93	11.06	5.8	1042.6	1141.2
27.94	11.06	5.8	1042.6	1140.7
27.95	11.06	5.81	1042.6	1140.8
27.96	11.06	5.8	1042.6	1141.4
27.97	11.06	5.81	1042.5	1141.4
27.98	11.06	5.81	1042.3	1140.9
27.99	11.06	5.81	1042.4	1140.8
28.0	11.06	5.8	1042.4	1141.0
28.01	11.04	5.8	1042.4	1140.6
28.02	11.05	5.8	1042.5	1140.5
28.03	11.05	5.8	1042.4	1140.7
28.04	11.06	5.8	1042.5	1141.2
28.05	11.06	5.8	1042.5	1140.7
28.06	11.05	5.8	1042.4	1140.0
28.07	11.06	5.8	1042.5	1140.4
28.08	11.07	5.8	1042.3	1140.3
28.09	11.05	5.8	1042.5	1139.9
28.1	11.07	5.8	1042.4	1140.0
28.11	11.06	5.8	1042.5	1140.6
28.12	11.07	5.8	1042.6	1140.5
28.13	11.06	5.8	1042.2	1140.6
28.14	11.06	5.79	1042.2	1140.6
28.15	11.06	5.8	1042.1	1139.9
28.16	11.07	5.8	1042.3	1140.2
28.17	11.07	5.8	1042.2	1139.8
28.18	11.06	5.8	1042.1	1139.9
28.19	11.06	5.79	1042.0	1140.2
28.2	11.06	5.8	1042.1	1139.6
28.21	11.08	5.8	1042.2	1139.5
28.22	11.07	5.8	1042.3	1139.0
28.23	11.07	5.79	1042.2	1139.5
28.24	11.05	5.79	1042.0	1139.2
28.25	11.07	5.79	1042.0	1138.8
28.26	11.05	5.8	1042.0	1139.6
28.27	11.07	5.79	1042.0	1139.7
28.28	11.05	5.79	1042.2	1139.5
28.29	11.07	5.79	1042.1	1139.6
28.3	11.06	5.79	1042.2	1138.8
28.31	11.06	5.79	1042.1	1139.2
28.32	11.05	5.79	1041.9	1139.4
28.33	11.08	5.8	1042.1	1139.2
28.34	11.05	5.79	1041.8	1139.3
28.35	11.06	5.79	1042.0	1139.8
28.36	11.06	5.79	1041.7	1140.1
28.37	11.06	5.79	1041.9	1139.6
28.38	11.05	5.79	1042.0	1139.2
28.39	11.06	5.79	1042.0	1139.3
28.4	11.05	5.79	1042.0	1139.9
28.41	11.06	5.79	1042.1	1139.6
28.42	11.06	5.79	1041.9	1139.5
28.43	11.06	5.79	1042.2	1139.5
28.44	11.06	5.79	1042.0	1139.4
28.45	11.07	5.79	1042.1	1139.3
28.46	11.07	5.79	1041.9	1139.6
28.47	11.06	5.79	1042.0	1139.9
28.48	11.06	5.78	1042.0	1139.4
28.49	11.07	5.79	1041.9	1139.1
28.5	11.05	5.78	1041.9	1139.5
28.51	11.06	5.78	1042.0	1139.0
28.52	11.05	5.78	1042.0	1139.0
28.53	11.05	5.78	1041.8	1139.1
28.54	11.06	5.78	1041.9	1139.1
28.55	11.06	5.78	1041.9	1139.6
28.56	11.05	5.78	1041.8	1139.2
28.57	11.05	5.78	1041.9	1139.2
28.58	11.06	5.78	1041.8	1139.3
28.59	11.06	5.78	1041.7	1139.6
28.6	11.07	5.78	1041.8	1138.9
28.61	11.05	5.78	1042.0	1138.9
28.62	11.06	5.78	1041.9	1139.2
28.63	11.06	5.78	1041.7	1138.9
28.64	11.06	5.78	1041.6	1139.2
28.65	11.06	5.78	1041.7	1138.6
28.66	11.06	5.78	1041.7	1139.1
28.67	11.06	5.78	1041.9	1139.2
28.68	11.06	5.78	1041.9	1138.8
28.69	11.06	5.78	1042.0	1138.8
28.7	11.08	5.78	1041.8	1138.6
28.71	11.06	5.77	1042.0	1139.1
28.72	11.06	5.77	1041.9	1138.5
28.73	11.05	5.77	1041.7	1138.2
28.74	11.06	5.78	1041.9	1138.4
28.75	11.07	5.78	1042.0	1138.5
28.76	11.06	5.77	1041.9	1138.8
28.77	11.06	5.78	1041.7	1138.8
28.78	11.06	5.77	1041.5	1138.7
28.79	11.05	5.77	1041.5	1138.8
28.8	11.06	5.78	1041.5	1138.8
28.81	11.06	5.77	1041.4	1138.4
28.82	11.07	5.78	1041.6	1138.6
28.83	11.06	5.77	1041.6	1138.2
28.84	11.05	5.77	1041.5	1138.2
28.85	11.06	5.77	1041.6	1138.4
28.86	11.05	5.77	1041.5	1138.6
28.87	11.06	5.77	1041.8	1138.5
28.88	11.07	5.78	1041.6	1137.5
28.89	11.05	5.77	1041.6	1138.2
28.9	11.06	5.77	1041.5	1138.4
28.91	11.06	5.77	1041.5	1138.3
28.92	11.05	5.76	1041.4	1138.2
28.93	11.07	5.77	1041.6	1137.8
28.94	11.06	5.77	1041.6	1138.0
28.95	11.06	5.77	1041.5	1138.6
28.96	11.06	5.77	1041.4	1138.5
28.97	11.07	5.77	1041.4	1138.1
28.98	11.06	5.77	1041.5	1138.2
28.99	11.07	5.77	1041.7	1137.8
29.0	11.06	5.77	1041.7	1137.6
29.01	11.07	5.77	1041.5	1138.4
29.02	11.06	5.77	1041.5	1138.1
29.03	11.07	5.77	1041.4	1137.9
29.04	11.06	5.76	1041.6	1137.6
29.05	11.07	5.76	1041.5	1138.1
29.06	11.05	5.76	1041.1	1137.6
29.07	11.06	5.76	1041.3	1137.4
29.08	11.05	5.76	1041.1	1137.3
29.09	11.06	5.76	1040.9	1137.9
29.1	11.05	5.76	1040.9	1137.3
29.11	11.06	5.76	1041.2	1137.4
29.12	11.05	5.76	1041.0	1136.8
29.13	11.07	5.76	1040.9	1137.5
29.14	11.07	5.77	1040.8	1137.4
29.15	11.05	5.76	1040.8	1137.0
29.16	11.06	5.76	1040.7	1136.8
29.17	11.06	5.76	1040.8	1137.3
29.18	11.06	5.76	1040.7	1137.1
29.19	11.07	5.76	1040.7	1137.0
29.2	11.06	5.76	1040.7	1136.7
29.21	11.06	5.76	1040.7	1137.2
29.22	11.06	5.76	1040.4	1137.3
29.23	11.05	5.75	1040.8	1137.1
29.24	11.05	5.75	1040.6	1136.5
29.25	11.06	5.76	1040.7	1137.6
29.26	11.07	5.76	1040.8	1137.2
29.27	11.06	5.76	1041.0	1137.3
29.28	11.06	5.75	1041.1	1136.8
29.29	11.06	5.76	1041.0	1137.2
29.3	11.07	5.76	1041.2	1136.7
29.31	11.05	5.75	1041.2	1136.6
29.32	11.06	5.75	1041.1	1136.6
29.33	11.06	5.75	1040.8	1137.0
29.34	11.07	5.76	1040.9	1137.2
29.35	11.05	5.75	1040.8	1137.0
29.36	11.07	5.75	1040.7	1136.8
29.37	11.05	5.75	1040.7	1137.1
29.38	11.07	5.75	1040.8	1136.5
29.39	11.05	5.75	1040.6	1136.5
29.4	11.07	5.76	1040.8	1136.3
29.41	11.06	5.75	1040.7	1136.8
29.42	11.07	5.75	1040.9	1136.6
29.43	11.07	5.75	1041.0	1136.7
29.44	11.05	5.75	1040.8	1136.4
29.45	11.06	5.75	1040.7	1136.8
29.46	11.07	5.75	1040.6	1136.4
29.47	11.06	5.75	1040.7	1136.7
29.48	11.06	5.75	1040.4	1136.0
29.49	11.06	5.75	1040.3	1136.8
29.5	11.06	5.75	1040.8	1136.1
29.51	11.06	5.75	1040.3	1136.1
29.52	11.05	5.75	1040.6	1136.2
29.53	11.06	5.75	1040.5	1136.6
29.54	11.06	5.75	1040.6	1136.4
29.55	11.06	5.75	1040.4	1135.9
29.56	11.06	5.75	1040.4	1136.2
29.57	11.06	5.75	1040.4	1136.4
29.58	11.05	5.75	1040.3	1136.8
29.59	11.05	5.75	1040.4	1136.0
29.6	11.05	5.74	1040.3	1136.6
29.61	11.06	5.74	1040.4	1136.7
29.62	11.06	5.75	1040.2	1135.7
29.63	11.06	5.75	1040.2	1136.1
29.64	11.06	5.75	1040.2	1135.7
29.65	11.06	5.74	1040.3	1136.0
29.66	11.06	5.74	1040.1	1136.1
29.67	11.06	5.74	1040.2	1135.6
29.68	11.05	5.74	1040.3	1136.3
29.69	11.07	5.74	1040.4	1135.8
29.7	11.06	5.74	1040.2	1135.9
29.71	11.07	5.74	1040.2	1136.1
29.72	11.05	5.74	1040.0	1136.2
29.73	11.07	5.74	1040.2	1135.7
29.74	11.05	5.74	1039.9	1136.1
29.75	11.07	5.74	1040.2	1135.3
29.76	11.06	5.74	1040.0	1135.7
29.77	11.06	5.74	1040.0	1135.2
29.78	11.06	5.74	1040.0	1135.5
29.79	11.06	5.74	1040.0	1135.1
29.8	11.07	5.74	1040.2	1135.9
29.81	11.06	5.74	1040.4	1135.8
29.82	11.05	5.74	1040.1	1136.0
29.83	11.06	5.74	1040.3	1135.5
29.84	11.06	5.74	1039.9	1135.3
29.85	11.07	5.74	1040.2	1135.7
29.86	11.06	5.73	1040.2	1135.3
29.87	11.06	5.74	1040.2	1135.3
29.88	11.06	5.73	1040.2	1134.9
29.89	11.07	5.74	1040.2	1135.0
29.9	11.06	5.74	1040.4	1134.8
29.91	11.06	5.73	1040.1	1135.0
29.92	11.06	5.74	1039.9	1134.8
29.93	11.05	5.73	1039.9	1135.3
29.94	11.07	5.74	1040.0	1134.7
29.95	11.06	5.73	1039.9	1134.7
29.96	11.06	5.74	1040.0	1134.9
29.97	11.06	5.73	1040.1	1135.1
29.98	11.07	5.73	1040.0	1134.7
29.99	11.06	5.73	1040.3	1134.7
30.0	11.06	5.73	1040.3	1134.5
30.01	11.05	5.73	1040.1	1134.9
30.02	11.07	5.73	1040.2	1134.4
30.03	11.05	5.73	1040.2	1134.8
30.04	11.08	5.74	1039.9	1134.9
30.05	11.06	5.73	1039.9	1135.3
30.06	11.06	5.73	1039.9	1134.4
30.07	11.05	5.73	1039.8	1134.5
30.08	11.06	5.73	1039.7	1134.5
30.09	11.07	5.73	1039.6	1134.8
30.1	11.07	5.73	1039.9	1134.7
30.11	11.06	5.73	1039.6	1134.7
30.12	11.06	5.73	1039.7	1134.5
30.13	11.04	5.73	1039.8	1135.0
30.14	11.06	5.73	1039.7	1134.2
30.15	11.06	5.73	1039.6	1134.8
30.16	11.06	5.72	1039.7	1135.0
30.17	11.06	5.73	1039.4	1134.4
30.18	11.06	5.73	1039.3	1134.3
30.19	11.05	5.73	1039.5	1134.3
30.2	11.06	5.73	1039.7	1134.3
30.21	11.04	5.72	1039.6	1134.2
30.22	11.06	5.72	1039.5	1134.3
30.23	11.05	5.72	1039.7	1134.2
30.24	11.06	5.72	1039.8	1133.6
30.25	11.06	5.72	1040.0	1134.3
30.26	11.06	5.72	1039.6	1133.8
30.27	11.06	5.73	1039.5	1134.2
30.28	11.06	5.72	1039.4	1133.9
30.29	11.06	5.72	1039.5	1133.9
30.3	11.06	5.72	1039.5	1133.5
30.31	11.06	5.72	1039.6	1134.0
30.32	11.06	5.72	1039.5	1133.8
30.33	11.07	5.72	1039.4	1134.2
30.34	11.05	5.72	1039.3	1133.7
30.35	11.06	5.72	1039.1	1134.2
30.36	11.05	5.72	1039.3	1134.0
30.37	11.06	5.72	1039.3	1133.5
30.38	11.06	5.72	1039.3	1133.5
30.39	11.07	5.72	1039.4	1134.0
30.4	11.06	5.72	1039.0	1133.9
30.41	11.06	5.72	1039.0	1133.4
30.42	11.06	5.72	1038.8	1133.2
30.43	11.06	5.72	1039.1	1134.2
30.44	11.06	5.72	1038.8	1133.2
30.45	11.06	5.72	1038.9	1133.5
30.46	11.06	5.72	1038.8	1132.9
30.47	11.06	5.72	1039.0	1133.5
30.48	11.06	5.72	1038.7	1133.3
30.49	11.06	5.72	1039.1	1133.7
30.5	11.06	5.72	1038.8	1133.0
30.51	11.07	5.72	1038.9	1133.6
30.52	11.05	5.71	1038.9	1132.9
30.53	11.07	5.72	1039.0	1133.1
30.54	11.06	5.71	1039.0	1132.7
30.55	11.07	5.72	1038.9	1133.1
30.56	11.06	5.72	1039.1	1132.6
30.57	11.06	5.71	1038.8	1132.3
30.58	11.06	5.71	1038.7	1132.8
30.59	11.06	5.71	1039.1	1133.3
30.6	11.06	5.71	1038.6	1132.8
30.61	11.05	5.71	1038.6	1133.0
30.62	11.07	5.72	1038.7	1132.7
30.63	11.05	5.71	1038.7	1132.6
30.64	11.06	5.71	1038.5	1132.9
30.65	11.05	5.71	1038.5	1132.4
30.66	11.06	5.71	1038.6	1132.4
30.67	11.05	5.71	1038.8	1132.5
30.68	11.06	5.71	1038.4	1132.6
30.69	11.05	5.71	1038.5	1132.5
30.7	11.06	5.71	1038.4	1132.6
30.71	11.06	5.71	1038.6	1132.5
30.72	11.07	5.71	1038.4	1132.4
30.73	11.06	5.71	1038.4	1132.1
30.74	11.07	5.71	1038.2	1132.4
30.75	11.05	5.7	1038.3	1132.8
30.76	11.07	5.71	1038.4	1132.5
30.77	11.07	5.71	1038.4	1132.2
30.78	11.06	5.71	1038.1	1132.2
30.79	11.06	5.71	1038.1	1132.4
30.8	11.07	5.71	1038.1	1132.4
30.81	11.05	5.7	1038.1	1131.9
30.82	11.06	5.71	1038.2	1132.7
30.83	11.06	5.71	1038.0	1132.2
30.84	11.07	5.71	1037.9	1132.3
30.85	11.06	5.71	1038.2	1131.9
30.86	11.06	5.7	1038.1	1131.7
30.87	11.06	5.7	1038.0	1132.8
30.88	11.06	5.71	1037.9	1131.9
30.89	11.06	5.71	1038.0	1132.0
30.9	11.07	5.71	1037.8	1131.9
30.91	11.06	5.7	1037.9	1132.0
30.92	11.06	5.7	1037.9	1131.4
30.93	11.05	5.7	1037.8	1131.4
30.94	11.05	5.7	1037.8	1131.3
30.95	11.07	5.7	1037.9	1131.4
30.96	11.06	5.7	1037.8	1131.9
30.97	11.06	5.7	1038.0	1131.9
30.98	11.06	5.7	1037.9	1131.6
30.99	11.06	5.7	1037.8	1131.5
31.0	11.06	5.7	1038.0	1131.7
31.01	11.06	5.7	1037.8	1131.4
31.02	11.06	5.7	1037.8	1131.3
31.03	11.06	5.7	1037.8	1131.6
31.04	11.06	5.7	1037.5	1131.4
31.05	11.06	5.7	1037.6	1131.3
31.06	11.06	5.7	1037.7	1131.5
31.07	11.05	5.7	1037.6	1131.4
31.08	11.07	5.7	1037.5	1131.3
31.09	11.05	5.7	1037.6	1131.1
31.1	11.06	5.7	1037.6	1131.3
31.11	11.06	5.7	1037.6	1131.2
31.12	11.05	5.7	1037.5	1131.2
31.13	11.06	5.7	1037.2	1131.3
31.14	11.06	5.7	1037.5	1131.1
31.15	11.06	5.7	1037.5	1131.1
31.16	11.05	5.7	1037.8	1130.7
31.17	11.05	5.69	1037.7	1130.7
31.18	11.06	5.7	1037.7	1131.2
31.19	11.06	5.7	1037.5	1130.9
31.2	11.05	5.69	1037.4	1130.6
31.21	11.07	5.7	1037.5	1131.2
31.22	11.05	5.69	1037.3	1130.8
31.23	11.07	5.7	1037.5	1130.6
31.24	11.06	5.7	1037.5	1130.2
31.25	11.06	5.69	1037.6	1130.4
31.26	11.06	5.69	1037.7	1130.8
31.27	11.06	5.69	1037.4	1130.4
31.28	11.07	5.7	1037.3	1130.5
31.29	11.06	5.69	1037.3	1130.5
31.3	11.07	5.7	1037.3	1130.6
31.31	11.06	5.69	1037.4	1130.2
31.32	11.06	5.69	1037.3	1130.1
31.33	11.06	5.69	1037.1	1130.5
31.34	11.06	5.69	1037.2	1130.4
31.35	11.06	5.69	1037.3	1130.2
31.36	11.06	5.69	1037.2	1130.0
31.37	11.07	5.69	1037.3	1130.5
31.38	11.05	5.69	1037.4	1130.1
31.39	11.06	5.69	1037.1	1130.0
31.4	11.05	5.69	1037.4	1129.9
31.41	11.04	5.68	1037.2	1130.3
31.42	11.06	5.69	1037.3	1129.8
31.43	11.06	5.69	1037.2	1130.4
31.44	11.07	5.69	1037.1	1129.7
31.45	11.04	5.69	1037.2	1130.0
31.46	11.06	5.69	1037.3	1129.9
31.47	11.06	5.69	1037.3	1130.3
31.48	11.05	5.68	1037.3	1129.7
31.49	11.06	5.68	1037.4	1130.0
31.5	11.07	5.69	1037.2	1129.8
31.51	11.05	5.69	1037.2	1130.3
31.52	11.08	5.69	1037.3	1130.0
31.53	11.06	5.69	1037.3	1129.9
31.54	11.07	5.69	1037.2	1129.8
31.55	11.05	5.68	1037.1	1129.6
31.56	11.05	5.68	1037.1	1129.4
31.57	11.06	5.69	1036.9	1130.2
31.58	11.06	5.68	1036.9	1130.0
31.59	11.06	5.69	1037.0	1130.0
31.6	11.07	5.69	1037.1	1129.3
31.61	11.06	5.69	1037.0	1129.8
31.62	11.06	5.68	1036.7	1129.8
31.63	11.06	5.68	1037.0	1129.2
31.64	11.06	5.68	1036.8	1129.2
31.65	11.05	5.68	1037.0	1129.8
31.66	11.05	5.68	1036.9	1129.1
31.67	11.06	5.68	1036.9	1129.2
31.68	11.06	5.68	1036.7	1129.4
31.69	11.06	5.68	1037.1	1129.7
31.7	11.06	5.68	1036.9	1129.1
31.71	11.06	5.68	1036.8	1128.8
31.72	11.06	5.68	1037.1	1129.4
31.73	11.05	5.68	1036.8	1129.2
31.74	11.05	5.68	1036.8	1129.5
31.75	11.06	5.68	1036.6	1129.4
31.76	11.06	5.68	1036.7	1129.1
31.77	11.07	5.68	1036.6	1129.6
31.78	11.07	5.69	1036.7	1129.0
31.79	11.05	5.67	1036.8	1128.6
31.8	11.06	5.68	1036.4	1128.9
31.81	11.06	5.68	1036.5	1129.0
31.82	11.06	5.68	1036.5	1128.9
31.83	11.07	5.68	1036.6	1129.0
31.84	11.05	5.67	1036.7	1128.9
31.85	11.07	5.68	1036.4	1129.0
31.86	11.06	5.68	1036.6	1129.0
31.87	11.06	5.68	1036.3	1128.4
31.88	11.06	5.68	1036.6	1129.1
31.89	11.05	5.67	1036.6	1129.3
31.9	11.07	5.68	1036.8	1129.0
31.91	11.07	5.68	1036.6	1128.7
31.92	11.05	5.67	1036.5	1129.0
31.93	11.06	5.68	1036.4	1128.9
31.94	11.06	5.68	1036.4	1128.7
31.95	11.07	5.68	1036.6	1128.4
31.96	11.07	5.68	1036.4	1128.9
31.97	11.06	5.68	1036.2	1128.7
31.98	11.07	5.68	1036.2	1128.2
31.99	11.07	5.67	1036.5	1128.4
32.0	11.07	5.67	1036.4	1128.8
32.01	11.06	5.67	1036.4	1128.6
32.02	11.05	5.67	1036.3	1128.8
32.03	11.06	5.67	1036.5	1128.8
32.04	11.07	5.67	1036.3	1128.8
32.05	11.07	5.67	1036.3	1128.5
32.06	11.07	5.68	1036.3	1128.6
32.07	11.06	5.67	1036.3	1128.1
32.08	11.06	5.67	1036.4	1128.4
32.09	11.05	5.67	1036.4	1128.3
32.1	11.06	5.67	1036.4	1128.0
32.11	11.06	5.67	1036.6	1128.2
32.12	11.07	5.67	1036.1	1128.3
32.13	11.05	5.67	1036.2	1127.8
32.14	11.06	5.67	1035.9	1127.5
32.15	11.05	5.67	1036.1	1128.1
32.16	11.06	5.67	1036.3	1127.6
32.17	11.05	5.67	1036.4	1127.9
32.18	11.05	5.67	1036.2	1127.6
32.19	11.06	5.67	1036.3	1128.1
32.2	11.06	5.67	1036.1	1127.6
32.21	11.06	5.67	1036.3	1128.1
32.22	11.06	5.67	1036.3	1127.4
32.23	11.05	5.66	1036.3	1127.9
32.24	11.07	5.67	1036.0	1127.1
32.25	11.05	5.67	1036.1	1127.6
32.26	11.06	5.66	1036.2	1127.6
32.27	11.06	5.67	1035.9	1127.5
32.28	11.06	5.67	1035.9	1126.9
32.29	11.06	5.67	1036.0	1127.7
32.3	11.08	5.67	1036.2	1127.3
32.31	11.05	5.66	1036.1	1128.0
32.32	11.07	5.67	1036.2	1127.8
32.33	11.06	5.67	1036.0	1127.8
32.34	11.06	5.66	1035.9	1127.4
32.35	11.06	5.66	1035.8	1127.1
32.36	11.05	5.66	1035.9	1127.4
32.37	11.07	5.67	1035.9	1127.5
32.38	11.06	5.66	1036.0	1127.6
32.39	11.06	5.67	1035.8	1127.4
32.4	11.06	5.67	1035.8	1126.8
32.41	11.06	5.66	1036.0	1127.3
32.42	11.05	5.66	1035.9	1126.7
32.43	11.06	5.66	1035.7	1127.2
32.44	11.05	5.66	1035.6	1126.8
32.45	11.07	5.66	1035.8	1126.6
32.46	11.06	5.66	1035.6	1127.1
32.47	11.06	5.66	1035.8	1127.0
32.48	11.06	5.67	1035.7	1126.8
32.49	11.06	5.66	1035.8	1127.3
32.5	11.07	5.67	1035.8	1127.4
32.51	11.06	5.66	1035.7	1127.7
32.52	11.05	5.66	1035.7	1127.3
32.53	11.06	5.66	1036.0	1127.1
32.54	11.06	5.66	1035.7	1126.5
32.55	11.06	5.66	1035.8	1126.9
32.56	11.06	5.66	1035.5	1126.7
32.57	11.06	5.66	1035.6	1126.6
32.58	11.06	5.66	1035.5	1126.6
32.59	11.07	5.66	1035.4	1126.5
32.6	11.05	5.66	1035.5	1126.4
32.61	11.06	5.66	1035.7	1125.7
32.62	11.06	5.66	1035.4	1126.5
32.63	11.05	5.66	1035.5	1126.9
32.64	11.06	5.66	1035.5	1126.9
32.65	11.06	5.66	1035.6	1126.2
32.66	11.06	5.66	1035.3	1126.3
32.67	11.06	5.65	1035.4	1126.0
32.68	11.06	5.66	1035.5	1126.4
32.69	11.06	5.66	1035.3	1126.0
32.7	11.05	5.65	1035.4	1126.3
32.71	11.06	5.66	1035.4	1126.2
32.72	11.07	5.66	1035.6	1126.2
32.73	11.06	5.65	1035.5	1125.8
32.74	11.07	5.66	1035.2	1126.2
32.75	11.06	5.66	1035.4	1126.0
32.76	11.06	5.65	1035.4	1125.6
32.77	11.06	5.66	1035.3	1125.8
32.78	11.06	5.65	1035.2	1126.0
32.79	11.06	5.66	1035.2	1126.1
32.8	11.07	5.65	1035.1	1125.6
32.81	11.06	5.66	1035.2	1125.8
32.82	11.06	5.65	1035.1	1126.0
32.83	11.06	5.65	1035.2	1126.2
32.84	11.07	5.65	1035.2	1126.0
32.85	11.07	5.65	1035.2	1125.7
32.86	11.06	5.65	1034.9	1126.0
32.87	11.05	5.65	1035.3	1125.6
32.88	11.07	5.66	1035.0	1125.7
32.89	11.06	5.65	1034.8	1125.3
32.9	11.06	5.65	1034.9	1125.6
32.91	11.06	5.65	1035.2	1125.6
32.92	11.06	5.65	1034.8	1125.1
32.93	11.06	5.65	1034.9	1125.1
32.94	11.06	5.65	1034.8	1125.2
32.95	11.05	5.65	1035.0	1125.2
32.96	11.06	5.65	1034.9	1124.7
32.97	11.06	5.65	1034.9	1124.9
32.98	11.06	5.65	1035.2	1125.5
32.99	11.06	5.65	1035.0	1125.1
33.0	11.06	5.65	1035.2	1125.4
33.01	11.05	5.64	1034.9	1125.4
33.02	11.06	5.65	1034.9	1125.2
33.03	11.06	5.65	1034.9	1125.0
33.04	11.06	5.65	1034.8	1124.8
33.05	11.06	5.65	1034.7	1125.3
33.06	11.06	5.65	1035.1	1125.1
33.07	11.07	5.65	1034.9	1125.3
33.08	11.06	5.65	1034.8	1124.7
33.09	11.06	5.64	1034.8	1124.8
33.1	11.07	5.65	1034.8	1124.9
33.11	11.06	5.64	1035.1	1124.6
33.12	11.06	5.65	1034.7	1124.1
33.13	11.07	5.65	1034.7	1124.9
33.14	11.05	5.64	1034.7	1124.6
33.15	11.07	5.65	1034.9	1124.5
33.16	11.05	5.64	1034.8	1124.6
33.17	11.06	5.65	1034.6	1125.3
33.18	11.05	5.64	1034.7	1124.2
33.19	11.06	5.64	1034.7	1125.1
33.2	11.05	5.64	1034.5	1124.9
33.21	11.07	5.65	1034.6	1124.9
33.22	11.06	5.64	1034.6	1124.0
33.23	11.06	5.65	1034.6	1124.5
33.24	11.06	5.64	1034.6	1124.4
33.25	11.06	5.64	1034.7	1123.8
33.26	11.06	5.64	1034.5	1123.7
33.27	11.06	5.64	1034.6	1124.2
33.28	11.07	5.65	1034.5	1123.3
33.29	11.07	5.64	1034.7	1124.6
33.3	11.06	5.64	1034.5	1124.1
33.31	11.06	5.64	1034.6	1123.9
33.32	11.05	5.64	1034.4	1123.9
33.33	11.07	5.64	1034.2	1124.3
33.34	11.06	5.64	1034.3	1123.6
33.35	11.07	5.64	1034.5	1124.0
33.36	11.06	5.64	1034.6	1124.0
33.37	11.06	5.64	1034.3	1124.0
33.38	11.06	5.64	1034.2	1124.1
33.39	11.06	5.64	1034.4	1124.1
33.4	11.06	5.64	1034.4	1123.7
33.41	11.06	5.64	1034.3	1124.3
33.42	11.06	5.64	1034.4	1123.6
33.43	11.07	5.64	1034.4	1123.8
33.44	11.06	5.64	1034.4	1123.7
33.45	11.06	5.64	1034.4	1123.7
33.46	11.06	5.64	1034.3	1123.5
33.47	11.05	5.63	1034.3	1123.6
33.48	11.06	5.63	1034.4	1123.4
33.49	11.06	5.64	1034.4	1124.2
33.5	11.07	5.64	1034.3	1123.9
33.51	11.07	5.64	1034.3	1124.0
33.52	11.06	5.64	1034.4	1123.6
33.53	11.06	5.64	1034.1	1123.8
33.54	11.06	5.64	1034.2	1122.9
33.55	11.05	5.63	1034.4	1123.1
33.56	11.06	5.64	1034.2	1123.5
33.57	11.06	5.64	1034.1	1123.5
33.58	11.07	5.63	1034.2	1123.6
33.59	11.06	5.64	1034.2	1123.3
33.6	11.06	5.63	1034.1	1123.3
33.61	11.05	5.63	1034.0	1123.6
33.62	11.06	5.63	1033.8	1123.2
33.63	11.05	5.63	1034.1	1123.2
33.64	11.06	5.63	1034.1	1123.1
33.65	11.06	5.64	1034.0	1123.1
33.66	11.06	5.63	1034.0	1122.9
33.67	11.06	5.63	1034.2	1123.1
33.68	11.05	5.63	1034.1	1123.0
33.69	11.06	5.63	1034.1	1123.5
33.7	11.07	5.63	1034.1	1122.9
33.71	11.04	5.63	1034.0	1123.2
33.72	11.05	5.63	1033.9	1123.1
33.73	11.06	5.63	1034.1	1122.9
33.74	11.06	5.63	1033.8	1122.8
33.75	11.06	5.63	1034.4	1123.0
33.76	11.05	5.63	1034.0	1123.0
33.77	11.06	5.63	1033.8	1122.5
33.78	11.06	5.63	1034.0	1122.0
33.79	11.05	5.63	1033.8	1122.1
33.8	11.06	5.63	1033.7	1122.7
33.81	11.06	5.63	1033.9	1122.3
33.82	11.06	5.63	1033.5	1122.2
33.83	11.06	5.63	1033.8	1122.3
33.84	11.07	5.63	1033.7	1122.4
33.85	11.07	5.63	1033.6	1122.2
33.86	11.05	5.62	1033.8	1122.5
33.87	11.06	5.63	1033.8	1121.9
33.88	11.06	5.63	1033.6	1122.1
33.89	11.06	5.62	1033.7	1121.9
33.9	11.06	5.63	1033.6	1121.7
33.91	11.06	5.63	1033.5	1121.9
33.92	11.05	5.63	1033.5	1122.0
33.93	11.07	5.63	1033.6	1122.0
33.94	11.05	5.63	1033.6	1121.5
33.95	11.06	5.63	1033.6	1122.0
33.96	11.05	5.63	1033.6	1122.0
33.97	11.06	5.62	1033.8	1121.7
33.98	11.06	5.63	1033.6	1121.5
33.99	11.07	5.63	1033.5	1121.8
34.0	11.06	5.63	1033.4	1121.4
34.01	11.07	5.63	1033.4	1121.4
34.02	11.04	5.62	1033.2	1121.1
34.03	11.07	5.63	1033.3	1121.5
34.04	11.05	5.62	1033.2	1121.2
34.05	11.06	5.63	1033.3	1121.5
34.06	11.05	5.63	1033.3	1121.0
34.07	11.06	5.62	1033.2	1120.8
34.08	11.07	5.63	1033.3	1121.0
34.09	11.06	5.62	1033.4	1121.2
34.1	11.07	5.63	1033.2	1120.4
34.11	11.06	5.63	1033.2	1121.0
34.12	11.07	5.63	1033.2	1121.0
34.13	11.06	5.62	1033.2	1121.0
34.14	11.06	5.62	1033.2	1120.5
34.15	11.06	5.62	1033.1	1120.2
34.16	11.06	5.63	1033.3	1120.7
34.17	11.06	5.62	1033.5	1120.7
34.18	11.07	5.63	1033.3	1120.2
34.19	11.07	5.62	1033.1	1120.6
34.2	11.07	5.62	1033.1	1120.7
34.21	11.06	5.62	1033.3	1120.9
34.22	11.06	5.62	1033.1	1120.5
34.23	11.05	5.62	1033.1	1120.5
34.24	11.07	5.62	1033.1	1120.6
34.25	11.06	5.62	1033.1	1120.5
34.26	11.07	5.62	1032.9	1120.1
34.27	11.05	5.62	1032.8	1121.0
34.28	11.06	5.62	1032.9	1120.5
34.29	11.05	5.62	1033.1	1120.7
34.3	11.06	5.62	1033.0	1120.1
34.31	11.06	5.62	1032.9	1120.5
34.32	11.06	5.62	1032.8	1120.3
34.33	11.05	5.62	1032.9	1120.5
34.34	11.07	5.62	1033.0	1120.3
34.35	11.06	5.62	1032.7	1120.9
34.36	11.07	5.62	1032.8	1120.0
34.37	11.06	5.62	1032.8	1120.1
34.38	11.06	5.61	1033.0	1119.8
34.39	11.06	5.62	1033.0	1120.4
34.4	11.07	5.62	1032.8	1119.8
34.41	11.06	5.62	1032.9	1119.9
34.42	11.06	5.62	1032.6	1119.7
34.43	11.06	5.62	1032.7	1119.8
34.44	11.06	5.61	1032.7	1119.4
34.45	11.05	5.61	1032.8	1119.7
34.46	11.06	5.61	1032.5	1119.2
34.47	11.06	5.62	1032.6	1119.6
34.48	11.06	5.62	1032.4	1119.6
34.49	11.06	5.62	1032.6	1120.1
34.5	11.06	5.62	1032.5	1119.0
34.51	11.05	5.61	1032.8	1119.8
34.52	11.07	5.62	1032.8	1119.6
34.53	11.05	5.61	1032.6	1119.9
34.54	11.06	5.61	1032.7	1119.7
34.55	11.07	5.62	1032.5	1119.9
34.56	11.05	5.61	1032.6	1119.8
34.57	11.06	5.61	1032.5	1120.0
34.58	11.06	5.61	1032.6	1119.3
34.59	11.06	5.61	1032.7	1119.3
34.6	11.06	5.61	1032.6	1119.2
34.61	11.07	5.61	1032.5	1119.3
34.62	11.06	5.61	1032.6	1118.7
34.63	11.07	5.61	1032.4	1119.2
34.64	11.06	5.61	1032.2	1119.0
34.65	11.06	5.61	1032.3	1119.3
34.66	11.06	5.61	1032.5	1119.1
34.67	11.07	5.61	1032.5	1119.6
34.68	11.06	5.61	1032.3	1118.8
34.69	11.06	5.61	1032.4	1119.2
34.7	11.06	5.61	1032.3	1118.8
34.71	11.07	5.61	1032.3	1119.0
34.72	11.05	5.61	1032.4	1118.7
34.73	11.06	5.61	1032.2	1118.9
34.74	11.05	5.61	1032.3	1118.6
34.75	11.06	5.61	1032.3	1119.2
34.76	11.06	5.61	1032.2	1119.0
34.77	11.05	5.61	1032.3	1118.9
34.78	11.06	5.61	1032.5	1118.4
34.79	11.06	5.61	1032.3	1119.0
34.8	11.05	5.61	1032.2	1118.5
34.81	11.06	5.61	1032.3	1118.1
34.82	11.06	5.61	1032.4	1118.3
34.83	11.06	5.61	1032.4	1119.2
34.84	11.06	5.61	1032.2	1118.7
34.85	11.06	5.61	1032.4	1118.3
34.86	11.06	5.61	1032.2	1118.4
34.87	11.06	5.61	1032.2	1117.7
34.88	11.06	5.61	1032.4	1117.9
34.89	11.05	5.6	1032.2	1117.7
34.9	11.06	5.61	1032.1	1118.2
34.91	11.05	5.61	1031.9	1118.4
34.92	11.07	5.61	1032.1	1118.1
34.93	11.06	5.61	1031.8	1117.8
34.94	11.06	5.61	1032.1	1118.1
34.95	11.06	5.6	1032.0	1117.7
34.96	11.06	5.61	1031.9	1117.5
34.97	11.05	5.6	1031.8	1117.8
34.98	11.06	5.6	1031.9	1117.7
34.99	11.06	5.6	1031.8	1118.0
35.0	11.05	5.6	1031.7	1117.7
35.01	11.07	5.61	1031.6	1117.6
35.02	11.06	5.61	1031.8	1117.8
35.03	11.05	5.6	1031.6	1117.8
35.04	11.08	5.61	1031.7	1117.7
35.05	11.05	5.6	1031.7	1117.1
35.06	11.06	5.6	1031.6	1117.6
35.07	11.06	5.6	1031.7	1117.3
35.08	11.06	5.6	1031.7	1117.4
35.09	11.06	5.6	1031.7	1117.1
35.1	11.06	5.6	1031.7	1117.5
35.11	11.05	5.6	1031.5	1117.9
35.12	11.07	5.6	1031.5	1117.0
35.13	11.07	5.6	1031.7	1116.9
35.14	11.06	5.6	1031.8	1116.8
35.15	11.06	5.6	1031.4	1117.2
35.16	11.06	5.6	1031.6	1117.1
35.17	11.07	5.6	1031.4	1116.7
35.18	11.06	5.61	1031.5	1117.2
35.19	11.07	5.61	1031.4	1117.1
35.2	11.06	5.6	1031.5	1116.6
35.21	11.05	5.6	1031.3	1116.8
35.22	11.07	5.6	1031.2	1116.8
35.23	11.06	5.6	1031.2	1117.2
35.24	11.05	5.6	1031.3	1117.1
35.25	11.06	5.6	1031.5	1117.0
35.26	11.06	5.6	1031.3	1116.8
35.27	11.06	5.6	1031.5	1116.7
35.28	11.06	5.6	1031.4	1116.6
35.29	11.07	5.6	1031.2	1116.7
35.3	11.05	5.6	1031.0	1116.4
35.31	11.06	5.6	1031.0	1116.9
35.32	11.05	5.59	1031.1	1116.3
35.33	11.06	5.6	1031.2	1117.0
35.34	11.05	5.6	1031.2	1115.9
35.35	11.07	5.6	1031.2	1116.5
35.36	11.06	5.6	1031.4	1115.9
35.37	11.06	5.6	1031.0	1116.6
35.38	11.06	5.6	1031.1	1116.3
35.39	11.06	5.59	1031.1	1116.1
35.4	11.06	5.6	1031.2	1116.0
35.41	11.06	5.6	1031.2	1116.2
35.42	11.05	5.6	1031.1	1116.3
35.43	11.07	5.6	1031.1	1115.8
35.44	11.06	5.6	1031.1	1116.1
35.45	11.07	5.6	1031.1	1116.2
35.46	11.06	5.6	1031.0	1116.2
35.47	11.06	5.59	1031.1	1115.5
35.48	11.04	5.59	1031.2	1116.0
35.49	11.06	5.59	1031.2	1116.4
35.5	11.05	5.59	1031.3	1115.9
35.51	11.05	5.59	1031.2	1115.9
35.52	11.06	5.59	1031.0	1116.1
35.53	11.06	5.6	1031.1	1115.8
35.54	11.06	5.6	1030.9	1115.7
35.55	11.06	5.6	1031.0	1115.6
35.56	11.06	5.59	1031.0	1115.9
35.57	11.05	5.59	1031.0	1115.5
35.58	11.06	5.59	1030.8	1115.5
35.59	11.06	5.59	1030.8	1115.2
35.6	11.06	5.59	1030.7	1115.6
35.61	11.07	5.6	1030.9	1115.1
35.62	11.06	5.59	1030.8	1115.4
35.63	11.06	5.59	1030.7	1115.4
35.64	11.06	5.59	1030.7	1115.7
35.65	11.06	5.59	1031.0	1115.6
35.66	11.07	5.59	1030.8	1115.5
35.67	11.05	5.59	1030.8	1114.9
35.68	11.05	5.59	1030.7	1115.1
35.69	11.07	5.59	1030.7	1115.5
35.7	11.07	5.6	1030.8	1114.5
35.71	11.06	5.59	1030.6	1114.7
35.72	11.06	5.59	1030.6	1115.3
35.73	11.05	5.59	1030.4	1115.5
35.74	11.07	5.59	1030.7	1114.9
35.75	11.05	5.59	1030.6	1115.2
35.76	11.06	5.59	1030.4	1115.2
35.77	11.07	5.59	1030.4	1114.9
35.78	11.06	5.59	1030.3	1115.0
35.79	11.06	5.59	1030.1	1114.3
35.8	11.07	5.59	1030.5	1115.1
35.81	11.06	5.59	1030.4	1114.8
35.82	11.07	5.6	1030.1	1114.6
35.83	11.05	5.58	1030.2	1114.5
35.84	11.07	5.59	1030.3	1114.5
35.85	11.06	5.59	1030.2	1114.7
35.86	11.06	5.59	1030.0	1114.5
35.87	11.07	5.59	1030.2	1114.6
35.88	11.07	5.59	1030.0	1114.8
35.89	11.06	5.59	1030.3	1114.9
35.9	11.05	5.59	1030.1	1113.9
35.91	11.06	5.59	1030.2	1113.9
35.92	11.06	5.59	1030.0	1114.4
35.93	11.06	5.58	1030.0	1113.9
35.94	11.05	5.58	1030.2	1114.1
35.95	11.07	5.59	1030.2	1114.0
35.96	11.05	5.58	1030.1	1114.3
35.97	11.05	5.58	1030.1	1114.0
35.98	11.04	5.58	1030.2	1113.8
35.99	11.06	5.58	1030.0	1114.3
36.0	11.06	5.59	1030.0	1113.9
36.01	11.05	5.58	1029.9	1114.0
36.02	11.05	5.58	1030.0	1113.8
36.03	11.06	5.59	1030.0	1114.2
36.04	11.06	5.58	1030.0	1114.1
36.05	11.06	5.58	1030.0	1114.2
36.06	11.06	5.59	1029.9	1113.5
36.07	11.07	5.58	1030.0	1114.3
36.08	11.06	5.59	1030.0	1114.4
36.09	11.05	5.58	1030.2	1113.9
36.1	11.06	5.59	1029.9	1113.6
36.11	11.06	5.58	1030.2	1113.4
36.12	11.07	5.59	1030.0	1113.4
36.13	11.06	5.58	1030.0	1113.7
36.14	11.07	5.59	1030.2	1113.6
36.15	11.06	5.58	1030.1	1113.5
36.16	11.05	5.58	1030.0	1113.0
36.17	11.07	5.59	1029.9	1113.0
36.18	11.06	5.58	1030.0	1112.8
36.19	11.06	5.58	1030.1	1113.8
36.2	11.05	5.58	1029.8	1113.6
36.21	11.06	5.58	1029.8	1113.8
36.22	11.06	5.58	1029.6	1113.3
36.23	11.07	5.58	1029.8	1113.5
36.24	11.05	5.58	1029.6	1113.2
36.25	11.06	5.58	1029.8	1113.7
36.26	11.05	5.58	1029.5	1113.2
36.27	11.05	5.58	1029.8	1113.4
36.28	11.06	5.58	1029.9	1113.7
36.29	11.05	5.58	1029.6	1113.5
36.3	11.07	5.58	1029.6	1113.0
36.31	11.05	5.58	1029.6	1113.0
36.32	11.07	5.58	1029.7	1112.8
36.33	11.06	5.58	1030.0	1113.1
36.34	11.06	5.58	1029.7	1113.0
36.35	11.04	5.57	1029.8	1113.0
36.36	11.07	5.58	1029.6	1113.2
36.37	11.07	5.58	1029.8	1112.8
36.38	11.06	5.58	1029.6	1112.6
36.39	11.06	5.58	1029.7	1112.9
36.4	11.06	5.58	1029.5	1113.1
36.41	11.06	5.58	1029.6	1112.5
36.42	11.07	5.58	1029.5	1112.5
36.43	11.07	5.58	1029.5	1112.8
36.44	11.06	5.58	1029.4	1112.6
36.45	11.05	5.58	1029.1	1112.6
36.46	11.06	5.58	1029.1	1112.5
36.47	11.05	5.58	1029.2	1113.1
36.48	11.07	5.58	1029.1	1112.6
36.49	11.06	5.58	1029.0	1112.2
36.5	11.07	5.58	1029.2	1112.3
36.51	11.06	5.58	1029.1	1112.6
36.52	11.06	5.58	1029.3	1112.6
36.53	11.06	5.57	1029.0	1112.6
36.54	11.07	5.58	1029.4	1112.5
36.55	11.06	5.58	1029.1	1112.5
36.56	11.07	5.57	1029.2	1112.1
36.57	11.07	5.58	1029.1	1112.5
36.58	11.06	5.57	1029.2	1112.7
36.59	11.06	5.58	1029.1	1112.5
36.6	11.06	5.57	1029.3	1112.3
36.61	11.06	5.57	1029.1	1112.0
36.62	11.06	5.57	1029.3	1112.1
36.63	11.06	5.58	1029.3	1112.0
36.64	11.07	5.58	1029.2	1112.2
36.65	11.06	5.58	1029.2	1112.3
36.66	11.06	5.57	1029.4	1111.9
36.67	11.06	5.57	1029.4	1112.1
36.68	11.05	5.57	1029.4	1112.0
36.69	11.06	5.57	1029.2	1111.9
36.7	11.06	5.57	1029.2	1111.8
36.71	11.05	5.57	1029.2	1112.0
36.72	11.06	5.58	1029.2	1111.8
36.73	11.06	5.57	1029.6	1111.6
36.74	11.06	5.57	1029.2	1111.9
36.75	11.07	5.58	1029.6	1112.1
36.76	11.05	5.57	1029.5	1111.8
36.77	11.06	5.57	1029.4	1111.6
36.78	11.06	5.57	1029.5	1111.5
36.79	11.06	5.57	1029.4	1111.6
36.8	11.07	5.58	1029.1	1111.4
36.81	11.06	5.57	1029.3	1111.4
36.82	11.06	5.57	1029.2	1111.7
36.83	11.06	5.57	1029.2	1111.7
36.84	11.06	5.57	1029.2	1111.5
36.85	11.06	5.57	1029.0	1111.4
36.86	11.06	5.57	1029.1	1111.9
36.87	11.06	5.57	1029.1	1111.7
36.88	11.06	5.57	1029.3	1111.6
36.89	11.06	5.57	1029.1	1111.2
36.9	11.06	5.57	1029.1	1111.6
36.91	11.06	5.57	1029.2	1111.6
36.92	11.05	5.57	1029.1	1111.5
36.93	11.06	5.57	1029.3	1111.2
36.94	11.06	5.57	1029.2	1111.4
36.95	11.06	5.57	1029.3	1111.3
36.96	11.06	5.57	1029.0	1111.3
36.97	11.07	5.57	1029.2	1111.4
36.98	11.07	5.57	1029.0	1111.6
36.99	11.06	5.57	1028.8	1111.5
37.0	11.05	5.57	1029.1	1111.3
37.01	11.06	5.57	1029.0	1110.6
37.02	11.06	5.57	1028.8	1111.5
37.03	11.07	5.57	1028.8	1111.4
37.04	11.06	5.57	1029.0	1111.5
37.05	11.06	5.57	1028.9	1111.0
37.06	11.06	5.57	1028.9	1111.1
37.07	11.06	5.57	1028.8	1110.9
37.08	11.07	5.57	1028.8	1111.3
37.09	11.05	5.56	1028.9	1111.0
37.1	11.06	5.57	1028.8	1111.1
37.11	11.05	5.56	1028.7	1111.4
37.12	11.06	5.57	1028.9	1111.0
37.13	11.05	5.57	1028.7	1111.0
37.14	11.07	5.57	1028.6	1111.1
37.15	11.06	5.57	1028.7	1110.4
37.16	11.07	5.57	1028.6	1110.2
37.17	11.05	5.56	1028.6	1110.8
37.18	11.07	5.56	1028.6	1110.6
37.19	11.06	5.57	1028.7	1110.6
37.2	11.07	5.57	1028.2	1110.2
37.21	11.06	5.57	1028.4	1110.8
37.22	11.07	5.57	1028.4	1110.6
37.23	11.06	5.56	1028.4	1109.8
37.24	11.08	5.57	1028.3	1109.5
37.25	11.06	5.57	1028.2	1111.1
37.26	11.06	5.56	1028.3	1110.2
37.27	11.07	5.57	1028.3	1109.8
37.28	11.07	5.56	1028.2	1109.9
37.29	11.05	5.56	1028.3	1110.2
37.3	11.06	5.56	1028.2	1109.9
37.31	11.06	5.56	1028.5	1109.7
37.32	11.07	5.57	1028.4	1109.0
37.33	11.05	5.56	1028.2	1110.2
37.34	11.05	5.56	1028.2	1109.6
37.35	11.06	5.56	1028.3	1109.7
37.36	11.06	5.56	1028.2	1109.4
37.37	11.07	5.56	1028.3	1110.0
37.38	11.06	5.56	1028.1	1109.5
37.39	11.05	5.56	1028.0	1109.6
37.4	11.06	5.57	1028.2	1109.2
37.41	11.06	5.56	1028.1	1109.6
37.42	11.06	5.56	1028.2	1109.4
37.43	11.06	5.56	1028.2	1109.9
37.44	11.06	5.56	1028.2	1109.6
37.45	11.06	5.56	1028.1	1110.0
37.46	11.07	5.56	1028.0	1109.9
37.47	11.05	5.56	1028.0	1109.5
37.48	11.06	5.56	1027.9	1109.3
37.49	11.05	5.56	1028.0	1109.5
37.5	11.06	5.56	1028.1	1109.6
37.51	11.06	5.56	1027.8	1109.0
37.52	11.05	5.56	1027.8	1108.8
37.53	11.06	5.56	1027.9	1109.3
37.54	11.07	5.56	1027.6	1109.1
37.55	11.06	5.56	1027.7	1109.8
37.56	11.05	5.56	1027.8	1109.0
37.57	11.07	5.56	1027.8	1109.0
37.58	11.05	5.56	1027.6	1109.0
37.59	11.06	5.56	1027.9	1109.0
37.6	11.06	5.56	1027.6	1108.9
37.61	11.08	5.56	1027.6	1108.7
37.62	11.06	5.56	1027.7	1109.3
37.63	11.06	5.55	1027.7	1108.8
37.64	11.06	5.56	1027.7	1108.7
37.65	11.07	5.56	1027.6	1109.1
37.66	11.06	5.55	1027.7	1108.7
37.67	11.07	5.56	1027.8	1108.6
37.68	11.06	5.56	1027.7	1108.7
37.69	11.06	5.56	1027.6	1108.8
37.7	11.07	5.56	1027.6	1108.8
37.71	11.07	5.56	1027.4	1108.0
37.72	11.06	5.55	1027.5	1108.0
37.73	11.07	5.56	1027.4	1108.5
37.74	11.05	5.55	1027.3	1108.3
37.75	11.07	5.56	1027.3	1108.4
37.76	11.06	5.55	1027.4	1107.4
37.77	11.06	5.56	1027.3	1108.6
37.78	11.06	5.55	1027.2	1107.8
37.79	11.06	5.56	1027.3	1108.1
37.8	11.07	5.56	1027.3	1108.1
37.81	11.07	5.56	1027.2	1108.7
37.82	11.06	5.55	1027.1	1108.1
37.83	11.06	5.56	1027.3	1107.6
37.84	11.05	5.55	1027.4	1107.7
37.85	11.05	5.55	1027.1	1108.5
37.86	11.08	5.56	1027.1	1107.6
37.87	11.05	5.55	1027.2	1107.9
37.88	11.07	5.55	1027.0	1108.0
37.89	11.06	5.55	1027.1	1108.2
37.9	11.05	5.55	1026.9	1107.9
37.91	11.07	5.56	1027.3	1107.6
37.92	11.06	5.55	1027.0	1108.0
37.93	11.05	5.55	1026.7	1107.9
37.94	11.07	5.55	1027.2	1108.3
37.95	11.05	5.55	1027.0	1108.0
37.96	11.07	5.55	1026.8	1107.6
37.97	11.07	5.56	1027.1	1108.2
37.98	11.07	5.55	1026.9	1107.8
37.99	11.05	5.55	1026.8	1107.5
38.0	11.06	5.55	1026.8	1107.3
38.01	11.06	5.55	1027.0	1107.6
38.02	11.07	5.56	1027.0	1107.9
38.03	11.05	5.55	1026.8	1107.3
38.04	11.06	5.55	1026.6	1108.0
38.05	11.07	5.56	1026.7	1107.9
38.06	11.05	5.55	1026.9	1107.6
38.07	11.06	5.55	1027.0	1107.3
38.08	11.06	5.55	1027.0	1106.9
38.09	11.07	5.56	1026.8	1107.0
38.1	11.06	5.55	1026.9	1107.4
38.11	11.06	5.55	1026.9	1107.3
38.12	11.05	5.55	1026.9	1107.3
38.13	11.06	5.55	1026.8	1107.2
38.14	11.06	5.55	1026.7	1106.7
38.15	11.07	5.55	1026.7	1107.0
38.16	11.05	5.55	1026.9	1107.1
38.17	11.08	5.55	1026.4	1106.7
38.18	11.06	5.55	1027.0	1106.6
38.19	11.06	5.55	1026.4	1106.5
38.2	11.06	5.55	1026.6	1106.7
38.21	11.07	5.55	1026.4	1107.0
38.22	11.05	5.55	1026.6	1106.4
38.23	11.05	5.54	1026.5	1106.2
38.24	11.05	5.55	1026.4	1106.3
38.25	11.06	5.55	1026.6	1107.0
38.26	11.05	5.55	1026.5	1106.7
38.27	11.06	5.55	1026.4	1106.8
38.28	11.07	5.55	1026.4	1106.7
38.29	11.05	5.54	1026.3	1106.4
38.3	11.05	5.55	1026.2	1106.2
38.31	11.06	5.55	1026.1	1105.7
38.32	11.06	5.55	1026.3	1106.2
38.33	11.06	5.55	1026.4	1106.4
38.34	11.05	5.54	1026.2	1106.2
38.35	11.07	5.55	1026.5	1105.9
38.36	11.06	5.55	1026.3	1106.4
38.37	11.05	5.54	1026.5	1105.7
38.38	11.05	5.54	1026.4	1105.8
38.39	11.06	5.54	1026.3	1106.0
38.4	11.07	5.55	1026.0	1105.8
38.41	11.06	5.55	1026.1	1106.0
38.42	11.07	5.55	1026.4	1105.6
38.43	11.06	5.55	1026.3	1105.7
38.44	11.06	5.55	1026.2	1105.8
38.45	11.06	5.54	1026.3	1105.9
38.46	11.08	5.55	1026.2	1105.8
38.47	11.07	5.55	1026.3	1105.5
38.48	11.07	5.55	1026.2	1105.9
38.49	11.05	5.54	1026.2	1105.9
38.5	11.05	5.54	1026.3	1105.5
38.51	11.06	5.55	1026.0	1105.6
38.52	11.07	5.55	1026.3	1105.6
38.53	11.07	5.55	1026.0	1105.7
38.54	11.05	5.54	1026.1	1105.2
38.55	11.04	5.54	1026.2	1105.2
38.56	11.06	5.54	1026.0	1105.7
38.57	11.05	5.54	1026.1	1105.8
38.58	11.06	5.54	1026.2	1105.1
38.59	11.05	5.54	1026.0	1105.3
38.6	11.06	5.54	1026.0	1105.3
38.61	11.06	5.55	1025.9	1105.5
38.62	11.07	5.54	1025.9	1105.4
38.63	11.05	5.54	1026.1	1105.8
38.64	11.07	5.54	1026.0	1105.3
38.65	11.07	5.55	1025.8	1105.5
38.66	11.07	5.54	1025.9	1105.2
38.67	11.05	5.54	1025.5	1105.3
38.68	11.06	5.54	1025.7	1105.1
38.69	11.06	5.55	1025.6	1104.9
38.7	11.06	5.54	1025.6	1104.7
38.71	11.06	5.54	1025.8	1105.0
38.72	11.05	5.54	1025.8	1104.9
38.73	11.06	5.54	1025.8	1104.7
38.74	11.06	5.54	1025.9	1104.6
38.75	11.05	5.54	1025.7	1105.0
38.76	11.07	5.54	1025.8	1104.7
38.77	11.08	5.55	1025.9	1104.6
38.78	11.06	5.54	1025.7	1104.6
38.79	11.07	5.54	1025.7	1104.6
38.8	11.06	5.54	1025.4	1104.7
38.81	11.06	5.54	1025.5	1104.7
38.82	11.07	5.54	1025.7	1104.4
38.83	11.07	5.54	1025.5	1104.7
38.84	11.06	5.54	1025.6	1104.4
38.85	11.05	5.54	1025.5	1104.3
38.86	11.05	5.53	1025.4	1104.2
38.87	11.07	5.54	1025.5	1104.4
38.88	11.07	5.54	1025.4	1104.6
38.89	11.07	5.54	1025.4	1103.8
38.9	11.05	5.54	1025.3	1104.1
38.91	11.06	5.53	1025.4	1104.6
38.92	11.06	5.54	1025.2	1104.3
38.93	11.06	5.54	1025.6	1104.4
38.94	11.06	5.54	1025.2	1104.0
38.95	11.08	5.54	1025.4	1104.2
38.96	11.05	5.54	1025.4	1103.8
38.97	11.07	5.54	1025.6	1103.8
38.98	11.05	5.54	1025.5	1103.8
38.99	11.05	5.53	1025.1	1104.1
39.0	11.06	5.54	1025.4	1104.0
39.01	11.05	5.54	1025.2	1103.9
39.02	11.05	5.54	1025.3	1104.5
39.03	11.06	5.54	1025.3	1104.4
39.04	11.05	5.53	1025.1	1104.0
39.05	11.06	5.54	1025.2	1104.0
39.06	11.05	5.54	1025.2	1104.9
39.07	11.06	5.53	1025.1	1104.1
39.08	11.06	5.54	1025.1	1103.5
39.09	11.06	5.54	1025.2	1103.7
39.1	11.05	5.53	1025.1	1103.6
39.11	11.06	5.53	1025.2	1103.6
39.12	11.06	5.54	1025.0	1103.5
39.13	11.06	5.54	1025.2	1103.4
39.14	11.05	5.53	1025.2	1103.2
39.15	11.07	5.54	1025.1	1103.6
39.16	11.07	5.54	1025.1	1103.7
39.17	11.07	5.54	1025.1	1103.6
39.18	11.07	5.54	1025.1	1103.8
39.19	11.06	5.53	1024.9	1103.5
39.2	11.07	5.54	1025.0	1103.5
39.21	11.05	5.53	1024.8	1103.1
39.22	11.06	5.53	1025.0	1103.1
39.23	11.06	5.54	1024.8	1102.9
39.24	11.07	5.53	1024.8	1103.0
39.25	11.05	5.53	1024.8	1102.9
39.26	11.05	5.53	1024.8	1103.3
39.27	11.06	5.53	1025.0	1103.1
39.28	11.06	5.54	1025.0	1103.3
39.29	11.06	5.53	1025.0	1102.9
39.3	11.08	5.54	1024.9	1102.8
39.31	11.06	5.54	1024.8	1102.9
39.32	11.06	5.53	1024.8	1103.2
39.33	11.05	5.53	1024.9	1103.0
39.34	11.07	5.54	1024.9	1102.6
39.35	11.05	5.53	1024.7	1102.8
39.36	11.06	5.53	1024.7	1102.9
39.37	11.05	5.53	1024.7	1102.6
39.38	11.05	5.53	1024.9	1102.9
39.39	11.06	5.53	1024.6	1102.7
39.4	11.06	5.53	1024.6	1103.2
39.41	11.06	5.53	1024.6	1102.6
39.42	11.07	5.54	1024.7	1102.7
39.43	11.07	5.54	1024.4	1102.6
39.44	11.07	5.53	1024.6	1102.6
39.45	11.06	5.53	1024.6	1102.5
39.46	11.06	5.53	1024.7	1102.8
39.47	11.07	5.54	1024.6	1102.5
39.48	11.06	5.53	1024.5	1102.4
39.49	11.06	5.53	1024.5	1102.7
39.5	11.04	5.53	1024.3	1102.6
39.51	11.06	5.53	1024.5	1102.7
39.52	11.06	5.53	1024.8	1102.1
39.53	11.06	5.53	1024.4	1102.4
39.54	11.05	5.53	1024.4	1102.5
39.55	11.06	5.53	1024.2	1102.6
39.56	11.05	5.53	1024.4	1102.0
39.57	11.06	5.53	1024.4	1102.3
39.58	11.08	5.54	1024.6	1102.6
39.59	11.05	5.53	1024.4	1102.2
39.6	11.05	5.53	1024.3	1102.2
39.61	11.07	5.53	1024.3	1102.2
39.62	11.07	5.53	1024.2	1102.2
39.63	11.06	5.53	1024.4	1101.9
39.64	11.05	5.52	1024.6	1101.8
39.65	11.05	5.52	1024.3	1102.4
39.66	11.05	5.53	1024.4	1101.9
39.67	11.07	5.53	1024.3	1101.9
39.68	11.06	5.53	1024.3	1101.6
39.69	11.07	5.53	1024.4	1102.0
39.7	11.06	5.53	1024.3	1101.9
39.71	11.07	5.53	1024.3	1102.2
39.72	11.08	5.53	1024.4	1101.4
39.73	11.06	5.53	1024.2	1101.9
39.74	11.05	5.53	1024.3	1101.7
39.75	11.06	5.53	1024.3	1101.6
39.76	11.06	5.53	1024.3	1101.5
39.77	11.06	5.53	1024.1	1101.9
39.78	11.05	5.52	1024.2	1101.7
39.79	11.05	5.52	1024.2	1102.2
39.8	11.06	5.52	1024.3	1101.4
39.81	11.06	5.53	1024.0	1101.6
39.82	11.06	5.53	1024.1	1101.6
39.83	11.07	5.53	1024.0	1101.8
39.84	11.06	5.53	1024.4	1101.4
39.85	11.05	5.52	1024.1	1101.5
39.86	11.06	5.52	1024.2	1101.3
39.87	11.07	5.53	1023.9	1101.3
39.88	11.07	5.53	1024.2	1101.2
39.89	11.06	5.52	1023.9	1101.7
39.9	11.07	5.53	1024.0	1101.3
39.91	11.05	5.53	1024.0	1101.1
39.92	11.06	5.53	1024.1	1101.2
39.93	11.07	5.53	1024.0	1101.5
39.94	11.07	5.52	1023.9	1101.5
39.95	11.07	5.53	1024.1	1101.1
39.96	11.07	5.53	1024.1	1101.1
39.97	11.06	5.53	1024.2	1101.1
39.98	11.06	5.53	1023.9	1101.2
39.99	11.06	5.53	1024.2	1101.1
40.0	11.06	5.52	1023.9	1100.6
40.01	11.06	5.53	1024.0	1101.1
40.02	11.06	5.52	1024.0	1101.1
40.03	11.06	5.53	1023.9	1101.1
40.04	11.06	5.53	1024.0	1101.1
40.05	11.05	5.52	1024.0	1101.0
40.06	11.06	5.53	1024.1	1101.5
40.07	11.05	5.52	1023.8	1101.1
40.08	11.06	5.52	1023.8	1101.0
40.09	11.06	5.53	1023.8	1100.6
40.1	11.06	5.52	1024.0	1100.4
40.11	11.05	5.52	1024.0	1101.2
40.12	11.06	5.52	1023.9	1100.5
40.13	11.06	5.52	1023.9	1101.2
40.14	11.06	5.52	1023.9	1100.9
40.15	11.06	5.52	1023.8	1101.0
40.16	11.07	5.53	1023.7	1100.2
40.17	11.06	5.52	1023.6	1100.4
40.18	11.06	5.52	1024.0	1100.4
40.19	11.07	5.52	1023.9	1100.9
40.2	11.06	5.52	1024.0	1100.1
40.21	11.05	5.52	1023.7	1100.6
40.22	11.06	5.52	1023.5	1100.9
40.23	11.05	5.52	1023.7	1100.2
40.24	11.06	5.52	1023.8	1100.1
40.25	11.06	5.52	1023.6	1100.1
40.26	11.06	5.52	1023.7	1099.9
40.27	11.06	5.52	1023.8	1100.4
40.28	11.05	5.52	1023.5	1099.7
40.29	11.06	5.52	1023.7	1100.4
40.3	11.06	5.52	1023.4	1099.9
40.31	11.04	5.51	1023.7	1099.6
40.32	11.05	5.52	1023.5	1100.4
40.33	11.07	5.53	1023.6	1100.7
40.34	11.04	5.52	1023.6	1100.3
40.35	11.06	5.52	1023.3	1100.3
40.36	11.05	5.52	1023.6	1099.7
40.37	11.06	5.52	1023.4	1099.9
40.38	11.05	5.52	1023.4	1099.8
40.39	11.06	5.52	1023.5	1099.4
40.4	11.07	5.52	1023.5	1099.6
40.41	11.06	5.52	1023.3	1100.1
40.42	11.05	5.52	1023.5	1099.4
40.43	11.07	5.52	1023.5	1099.0
40.44	11.07	5.52	1023.3	1099.2
40.45	11.07	5.52	1023.5	1099.4
40.46	11.06	5.52	1023.3	1099.5
40.47	11.07	5.52	1023.3	1099.5
40.48	11.07	5.52	1023.2	1099.3
40.49	11.06	5.52	1023.2	1099.4
40.5	11.06	5.52	1023.5	1099.2
40.51	11.07	5.52	1023.3	1099.4
40.52	11.06	5.52	1023.6	1099.5
40.53	11.07	5.52	1023.6	1099.1
40.54	11.06	5.52	1023.5	1099.1
40.55	11.06	5.52	1023.4	1099.1
40.56	11.06	5.52	1023.4	1099.1
40.57	11.05	5.52	1023.4	1099.0
40.58	11.07	5.52	1023.3	1099.0
40.59	11.06	5.52	1023.1	1099.3
40.6	11.05	5.51	1023.2	1099.2
40.61	11.05	5.51	1023.1	1099.4
40.62	11.06	5.51	1023.4	1099.1
40.63	11.07	5.52	1023.2	1098.6
40.64	11.07	5.52	1023.0	1098.6
40.65	11.06	5.52	1023.2	1099.0
40.66	11.06	5.52	1023.2	1098.0
40.67	11.06	5.52	1023.1	1098.4
40.68	11.07	5.52	1023.1	1099.1
40.69	11.05	5.51	1023.1	1098.5
40.7	11.06	5.52	1023.3	1098.4
40.71	11.05	5.51	1022.9	1098.9
40.72	11.06	5.51	1023.3	1099.0
40.73	11.05	5.51	1022.9	1098.8
40.74	11.06	5.51	1023.1	1098.8
40.75	11.05	5.52	1023.1	1098.6
40.76	11.07	5.52	1023.2	1098.5
40.77	11.07	5.52	1023.2	1098.6
40.78	11.05	5.51	1023.0	1098.0
40.79	11.06	5.52	1022.9	1098.6
40.8	11.06	5.51	1023.1	1098.5
40.81	11.06	5.52	1023.0	1098.4
40.82	11.07	5.52	1023.1	1098.2
40.83	11.05	5.51	1022.9	1098.0
40.84	11.06	5.51	1022.9	1098.5
40.85	11.05	5.51	1022.5	1098.4
40.86	11.05	5.51	1022.4	1097.7
40.87	11.07	5.52	1022.6	1098.0
40.88	11.05	5.51	1022.6	1098.5
40.89	11.06	5.52	1022.5	1098.0
40.9	11.07	5.52	1022.6	1098.3
40.91	11.05	5.51	1022.6	1098.1
40.92	11.05	5.51	1022.8	1098.5
40.93	11.06	5.51	1022.4	1098.4
40.94	11.07	5.52	1022.6	1098.6
40.95	11.06	5.51	1022.6	1098.0
40.96	11.06	5.51	1022.5	1098.4
40.97	11.06	5.51	1022.6	1098.2
40.98	11.06	5.51	1022.5	1097.6
40.99	11.06	5.51	1022.4	1097.9
41.0	11.06	5.51	1022.6	1098.0
41.01	11.08	5.52	1022.5	1097.7
41.02	11.08	5.52	1022.5	1097.6
41.03	11.06	5.51	1022.3	1097.4
41.04	11.07	5.52	1022.2	1098.0
41.05	11.07	5.52	1022.3	1097.3
41.06	11.06	5.51	1022.3	1097.4
41.07	11.07	5.51	1022.4	1097.7
41.08	11.05	5.51	1022.3	1097.6
41.09	11.06	5.51	1022.5	1097.9
41.1	11.06	5.51	1022.3	1098.0
41.11	11.05	5.51	1022.4	1097.7
41.12	11.04	5.51	1022.5	1097.6
41.13	11.06	5.51	1022.4	1097.4
41.14	11.06	5.51	1022.2	1097.4
41.15	11.07	5.51	1022.3	1097.5
41.16	11.06	5.51	1022.3	1097.4
41.17	11.07	5.51	1022.4	1097.8
41.18	11.06	5.51	1022.2	1098.0
41.19	11.06	5.51	1022.2	1097.2
41.2	11.07	5.51	1022.2	1097.2
41.21	11.04	5.5	1022.2	1097.3
41.22	11.07	5.51	1022.4	1097.2
41.23	11.06	5.51	1022.4	1097.4
41.24	11.05	5.5	1022.2	1097.1
41.25	11.07	5.51	1022.2	1097.4
41.26	11.06	5.51	1022.1	1097.2
41.27	11.06	5.51	1022.1	1097.4
41.28	11.07	5.51	1022.3	1097.4
41.29	11.07	5.51	1022.2	1097.4
41.3	11.07	5.51	1022.4	1096.8
41.31	11.06	5.51	1022.3	1097.0
41.32	11.06	5.51	1022.1	1097.0
41.33	11.07	5.51	1022.1	1097.2
41.34	11.06	5.51	1022.4	1096.8
41.35	11.06	5.51	1022.3	1097.1
41.36	11.05	5.51	1022.0	1096.9
41.37	11.06	5.51	1022.1	1096.5
41.38	11.07	5.51	1022.3	1097.1
41.39	11.06	5.51	1022.0	1097.0
41.4	11.07	5.51	1022.4	1096.4
41.41	11.06	5.51	1022.0	1096.4
41.42	11.05	5.5	1022.4	1096.6
41.43	11.06	5.51	1022.1	1097.1
41.44	11.06	5.51	1022.1	1096.2
41.45	11.05	5.5	1022.0	1096.3
41.46	11.07	5.51	1021.9	1096.2
41.47	11.05	5.5	1021.8	1096.6
41.48	11.06	5.51	1022.1	1096.6
41.49	11.06	5.51	1022.0	1096.6
41.5	11.06	5.51	1022.0	1096.2
41.51	11.06	5.51	1021.8	1096.3
41.52	11.06	5.51	1021.7	1096.4
41.53	11.06	5.51	1021.9	1096.3
41.54	11.07	5.51	1021.7	1096.1
41.55	11.05	5.5	1021.8	1096.7
41.56	11.06	5.51	1021.8	1095.9
41.57	11.05	5.51	1021.7	1096.2
41.58	11.07	5.51	1021.6	1095.8
41.59	11.06	5.51	1021.6	1096.5
41.6	11.06	5.51	1021.8	1095.9
41.61	11.06	5.51	1021.8	1095.2
41.62	11.06	5.5	1021.7	1096.0
41.63	11.06	5.51	1021.8	1096.4
41.64	11.06	5.5	1021.7	1095.8
41.65	11.05	5.5	1021.6	1095.9
41.66	11.05	5.5	1021.7	1095.9
41.67	11.06	5.5	1021.9	1096.1
41.68	11.06	5.51	1021.6	1096.2
41.69	11.07	5.51	1021.6	1095.9
41.7	11.06	5.5	1021.5	1096.0
41.71	11.07	5.51	1021.5	1095.8
41.72	11.04	5.5	1021.4	1095.8
41.73	11.06	5.5	1021.4	1095.6
41.74	11.06	5.51	1021.8	1095.5
41.75	11.05	5.5	1021.3	1095.6
41.76	11.05	5.5	1021.5	1095.6
41.77	11.06	5.5	1021.6	1095.4
41.78	11.05	5.5	1021.3	1095.6
41.79	11.07	5.51	1021.4	1095.6
41.8	11.06	5.5	1021.3	1095.3
41.81	11.08	5.51	1021.4	1095.0
41.82	11.06	5.5	1021.3	1095.4
41.83	11.07	5.5	1021.5	1095.0
41.84	11.06	5.5	1021.4	1095.5
41.85	11.07	5.5	1021.3	1095.1
41.86	11.06	5.5	1021.5	1095.7
41.87	11.05	5.5	1021.1	1095.3
41.88	11.06	5.5	1021.4	1094.7
41.89	11.06	5.5	1021.4	1094.6
41.9	11.06	5.5	1021.2	1095.2
41.91	11.06	5.5	1021.1	1094.9
41.92	11.06	5.51	1021.3	1095.3
41.93	11.05	5.5	1021.0	1094.3
41.94	11.06	5.5	1021.1	1095.0
41.95	11.06	5.5	1021.1	1094.6
41.96	11.05	5.5	1021.2	1094.9
41.97	11.05	5.5	1020.9	1095.0
41.98	11.06	5.5	1021.0	1095.2
41.99	11.05	5.5	1021.0	1094.7
42.0	11.06	5.5	1021.1	1093.8
42.01	11.06	5.5	1021.0	1094.6
42.02	11.05	5.5	1021.1	1095.1
42.03	11.06	5.5	1020.9	1094.5
42.04	11.06	5.5	1021.1	1094.4
42.05	11.06	5.5	1021.0	1094.4
42.06	11.06	5.5	1021.2	1094.8
42.07	11.05	5.5	1020.8	1094.3
42.08	11.06	5.5	1021.1	1093.9
42.09	11.07	5.5	1020.8	1094.1
42.1	11.06	5.5	1020.8	1094.2
42.11	11.07	5.51	1020.7	1094.3
42.12	11.06	5.5	1020.8	1094.4
42.13	11.05	5.5	1020.8	1093.6
42.14	11.06	5.5	1020.8	1094.7
42.15	11.04	5.5	1020.8	1094.0
42.16	11.07	5.5	1020.8	1093.5
42.17	11.06	5.5	1021.0	1093.6
42.18	11.06	5.5	1020.7	1094.0
42.19	11.07	5.5	1020.8	1094.0
42.2	11.06	5.5	1020.8	1093.9
42.21	11.06	5.5	1020.6	1094.0
42.22	11.06	5.5	1021.0	1094.3
42.23	11.06	5.5	1020.7	1093.9
42.24	11.06	5.5	1020.8	1094.0
42.25	11.06	5.5	1020.8	1093.5
42.26	11.06	5.5	1020.8	1094.0
42.27	11.06	5.5	1020.7	1093.6
42.28	11.07	5.5	1020.8	1093.3
42.29	11.05	5.5	1020.8	1094.3
42.3	11.06	5.5	1020.7	1094.2
42.31	11.07	5.5	1020.5	1093.9
42.32	11.06	5.5	1020.5	1093.8
42.33	11.06	5.5	1020.6	1093.4
42.34	11.07	5.5	1020.4	1093.5
42.35	11.07	5.5	1020.5	1093.2
42.36	11.06	5.5	1020.5	1093.1
42.37	11.07	5.5	1020.5	1092.8
42.38	11.06	5.5	1020.5	1093.2
42.39	11.05	5.49	1020.6	1093.0
42.4	11.06	5.5	1020.5	1093.5
42.41	11.06	5.5	1020.5	1093.2
42.42	11.05	5.49	1020.7	1093.0
42.43	11.06	5.49	1020.5	1093.3
42.44	11.06	5.5	1020.8	1092.9
42.45	11.06	5.5	1020.6	1093.3
42.46	11.06	5.5	1020.4	1093.2
42.47	11.07	5.5	1020.4	1093.0
42.48	11.06	5.5	1020.6	1093.1
42.49	11.08	5.5	1020.5	1093.2
42.5	11.05	5.5	1020.4	1093.0
42.51	11.06	5.49	1020.2	1093.3
42.52	11.07	5.5	1020.4	1092.7
42.53	11.07	5.5	1020.3	1093.2
42.54	11.06	5.49	1020.5	1093.4
42.55	11.06	5.49	1020.1	1092.8
42.56	11.05	5.49	1020.3	1092.7
42.57	11.07	5.5	1020.2	1093.0
42.58	11.07	5.5	1020.0	1093.0
42.59	11.07	5.5	1020.2	1092.9
42.6	11.06	5.5	1020.2	1092.9
42.61	11.05	5.49	1020.1	1092.9
42.62	11.06	5.5	1020.0	1092.4
42.63	11.06	5.49	1019.9	1092.8
42.64	11.05	5.49	1020.0	1092.8
42.65	11.06	5.49	1020.0	1092.4
42.66	11.05	5.49	1020.0	1092.4
42.67	11.06	5.49	1020.1	1092.4
42.68	11.06	5.49	1020.2	1092.4
42.69	11.06	5.49	1019.6	1092.7
42.7	11.06	5.49	1019.9	1092.8
42.71	11.06	5.49	1019.8	1092.7
42.72	11.06	5.5	1020.0	1092.7
42.73	11.05	5.49	1019.8	1092.9
42.74	11.06	5.49	1019.8	1092.7
42.75	11.07	5.5	1019.9	1092.3
42.76	11.07	5.49	1019.6	1092.6
42.77	11.06	5.49	1019.6	1092.8
42.78	11.07	5.49	1019.6	1093.1
42.79	11.06	5.49	1019.8	1092.6
42.8	11.05	5.49	1019.8	1092.2
42.81	11.05	5.49	1019.9	1092.7
42.82	11.06	5.49	1019.6	1092.2
42.83	11.06	5.5	1019.8	1092.4
42.84	11.07	5.5	1020.1	1092.6
42.85	11.07	5.5	1019.8	1092.4
42.86	11.07	5.5	1019.6	1092.7
42.87	11.05	5.49	1019.7	1092.3
42.88	11.07	5.5	1019.5	1092.7
42.89	11.07	5.5	1019.6	1092.2
42.9	11.06	5.49	1019.7	1092.5
42.91	11.06	5.49	1019.7	1092.7
42.92	11.07	5.49	1019.9	1092.4
42.93	11.06	5.49	1019.7	1092.4
42.94	11.06	5.49	1019.7	1092.4
42.95	11.06	5.49	1019.7	1092.1
42.96	11.07	5.49	1019.7	1092.4
42.97	11.06	5.49	1019.8	1092.1
42.98	11.07	5.49	1019.8	1092.0
42.99	11.07	5.5	1019.7	1091.8
43.0	11.06	5.49	1019.7	1092.0
43.01	11.08	5.49	1019.5	1092.0
43.02	11.07	5.49	1019.7	1092.7
43.03	11.07	5.49	1019.5	1091.8
43.04	11.06	5.49	1019.4	1091.8
43.05	11.05	5.48	1019.3	1091.7
43.06	11.06	5.49	1019.5	1091.6
43.07	11.07	5.49	1019.3	1091.0
43.08	11.06	5.49	1019.4	1091.4
43.09	11.05	5.49	1019.2	1091.0
43.1	11.05	5.49	1019.5	1091.4
43.11	11.05	5.49	1019.3	1090.9
43.12	11.06	5.49	1019.5	1091.8
43.13	11.06	5.49	1019.4	1091.7
43.14	11.06	5.49	1019.3	1091.6
43.15	11.06	5.49	1019.4	1091.1
43.16	11.05	5.48	1019.5	1091.2
43.17	11.07	5.49	1019.3	1091.2
43.18	11.05	5.49	1019.4	1090.9
43.19	11.06	5.49	1019.6	1091.4
43.2	11.06	5.49	1019.2	1091.2
43.21	11.07	5.49	1019.3	1091.5
43.22	11.05	5.49	1019.5	1091.0
43.23	11.06	5.49	1019.4	1090.8
43.24	11.06	5.49	1019.4	1091.5
43.25	11.06	5.48	1019.2	1091.1
43.26	11.06	5.49	1019.3	1090.8
43.27	11.07	5.49	1019.3	1091.6
43.28	11.05	5.49	1019.2	1091.1
43.29	11.05	5.48	1019.1	1091.2
43.3	11.06	5.49	1019.2	1090.8
43.31	11.06	5.49	1019.0	1090.7
43.32	11.07	5.49	1019.3	1091.0
43.33	11.05	5.49	1019.0	1090.6
43.34	11.05	5.48	1019.2	1090.4
43.35	11.08	5.49	1019.2	1091.1
43.36	11.06	5.48	1019.2	1090.4
43.37	11.05	5.48	1019.1	1090.3
43.38	11.06	5.49	1019.3	1090.3
43.39	11.05	5.48	1019.0	1090.6
43.4	11.06	5.49	1019.2	1090.2
43.41	11.06	5.49	1019.1	1090.5
43.42	11.06	5.49	1019.1	1090.2
43.43	11.06	5.49	1018.9	1090.6
43.44	11.06	5.48	1018.7	1090.8
43.45	11.06	5.49	1018.8	1090.9
43.46	11.07	5.49	1018.8	1090.9
43.47	11.06	5.49	1018.7	1090.6
43.48	11.06	5.49	1018.9	1090.2
43.49	11.06	5.49	1018.8	1090.3
43.5	11.07	5.49	1018.9	1090.2
43.51	11.05	5.49	1018.9	1090.7
43.52	11.05	5.48	1018.9	1090.1
43.53	11.05	5.49	1019.0	1090.3
43.54	11.06	5.49	1018.8	1090.0
43.55	11.06	5.48	1018.8	1090.3
43.56	11.07	5.49	1018.9	1090.3
43.57	11.06	5.49	1018.8	1090.2
43.58	11.06	5.48	1018.7	1090.0
43.59	11.05	5.49	1018.6	1089.9
43.6	11.06	5.48	1018.7	1090.2
43.61	11.05	5.48	1018.5	1090.2
43.62	11.06	5.48	1018.7	1090.0
43.63	11.05	5.49	1018.4	1090.2
43.64	11.07	5.49	1018.7	1089.8
43.65	11.06	5.48	1018.6	1090.1
43.66	11.06	5.48	1018.7	1090.0
43.67	11.06	5.48	1018.6	1089.8
43.68	11.06	5.48	1018.3	1090.1
43.69	11.06	5.48	1018.6	1089.5
43.7	11.07	5.49	1018.7	1090.1
43.71	11.06	5.49	1018.6	1090.0
43.72	11.06	5.48	1018.4	1089.7
43.73	11.06	5.48	1018.4	1089.7
43.74	11.06	5.48	1018.6	1089.8
43.75	11.07	5.49	1018.5	1090.0
43.76	11.07	5.49	1018.7	1090.2
43.77	11.05	5.48	1018.5	1089.7
43.78	11.06	5.48	1018.7	1089.9
43.79	11.06	5.48	1018.3	1090.0
43.8	11.06	5.48	1018.6	1089.8
43.81	11.06	5.48	1018.5	1089.8
43.82	11.07	5.49	1018.6	1090.0
43.83	11.05	5.48	1018.7	1089.9
43.84	11.06	5.48	1018.5	1089.8
43.85	11.06	5.48	1018.6	1089.5
43.86	11.05	5.48	1018.6	1089.8
43.87	11.06	5.48	1018.3	1089.8
43.88	11.06	5.49	1018.6	1089.0
43.89	11.07	5.49	1018.4	1089.3
43.9	11.05	5.48	1018.3	1089.8
43.91	11.05	5.48	1018.4	1089.4
43.92	11.07	5.49	1018.5	1089.1
43.93	11.06	5.48	1018.1	1088.9
43.94	11.05	5.48	1018.6	1089.8
43.95	11.06	5.48	1018.2	1089.3
43.96	11.04	5.48	1018.5	1089.7
43.97	11.06	5.48	1018.4	1089.4
43.98	11.06	5.48	1018.1	1089.2
43.99	11.07	5.48	1018.0	1088.9
44.0	11.07	5.49	1018.2	1089.1
44.01	11.06	5.48	1017.9	1088.7
44.02	11.06	5.48	1018.4	1088.9
44.03	11.06	5.48	1018.0	1088.6
44.04	11.07	5.48	1018.1	1089.0
44.05	11.06	5.48	1018.1	1088.9
44.06	11.05	5.48	1018.1	1088.6
44.07	11.07	5.48	1017.9	1089.0
44.08	11.06	5.48	1018.0	1088.4
44.09	11.06	5.48	1018.2	1088.8
44.1	11.07	5.48	1017.9	1089.0
44.11	11.06	5.48	1018.0	1088.9
44.12	11.07	5.48	1017.8	1088.0
44.13	11.06	5.48	1017.8	1089.1
44.14	11.05	5.48	1018.0	1088.7
44.15	11.05	5.48	1017.9	1088.5
44.16	11.07	5.48	1018.0	1088.8
44.17	11.06	5.48	1017.9	1088.7
44.18	11.07	5.48	1018.0	1088.6
44.19	11.06	5.48	1018.2	1088.1
44.2	11.06	5.48	1018.0	1088.7
44.21	11.06	5.48	1018.0	1088.7
44.22	11.07	5.48	1018.0	1088.2
44.23	11.06	5.48	1017.8	1088.5
44.24	11.06	5.48	1018.1	1087.8
44.25	11.05	5.48	1017.9	1088.3
44.26	11.06	5.48	1017.8	1088.6
44.27	11.06	5.48	1017.8	1088.1
44.28	11.06	5.48	1017.9	1088.1
44.29	11.05	5.48	1017.7	1088.2
44.3	11.06	5.48	1017.8	1088.5
44.31	11.05	5.48	1017.9	1088.6
44.32	11.06	5.48	1017.8	1087.9
44.33	11.06	5.48	1017.8	1088.4
44.34	11.06	5.48	1017.9	1088.1
44.35	11.06	5.48	1017.6	1087.9
44.36	11.06	5.48	1017.8	1088.3
44.37	11.06	5.48	1017.8	1088.0
44.38	11.06	5.48	1017.8	1088.0
44.39	11.06	5.48	1017.7	1087.9
44.4	11.06	5.48	1017.5	1087.7
44.41	11.06	5.48	1017.8	1087.8
44.42	11.06	5.48	1017.9	1087.6
44.43	11.06	5.48	1017.7	1087.2
44.44	11.07	5.48	1017.7	1088.2
44.45	11.05	5.47	1017.8	1087.9
44.46	11.06	5.48	1017.7	1087.9
44.47	11.07	5.48	1017.8	1087.7
44.48	11.07	5.48	1017.7	1087.6
44.49	11.07	5.48	1017.5	1087.9
44.5	11.07	5.48	1017.6	1087.7
44.51	11.06	5.48	1017.4	1087.7
44.52	11.06	5.48	1017.6	1087.7
44.53	11.06	5.48	1017.5	1087.5
44.54	11.05	5.47	1017.3	1087.7
44.55	11.06	5.48	1017.4	1087.5
44.56	11.06	5.48	1017.5	1087.1
44.57	11.06	5.48	1017.3	1087.2
44.58	11.06	5.48	1017.5	1087.3
44.59	11.07	5.48	1017.4	1087.1
44.6	11.06	5.48	1017.4	1087.3
44.61	11.06	5.47	1017.3	1087.1
44.62	11.06	5.48	1017.6	1087.4
44.63	11.06	5.48	1017.3	1087.0
44.64	11.04	5.47	1017.4	1087.2
44.65	11.05	5.47	1017.2	1087.2
44.66	11.05	5.48	1017.4	1086.9
44.67	11.06	5.48	1017.4	1086.7
44.68	11.06	5.48	1017.2	1087.2
44.69	11.06	5.48	1017.2	1087.2
44.7	11.06	5.48	1017.2	1087.1
44.71	11.06	5.48	1017.2	1086.6
44.72	11.06	5.48	1017.2	1086.8
44.73	11.07	5.48	1017.2	1087.3
44.74	11.06	5.48	1017.4	1087.0
44.75	11.07	5.48	1017.1	1087.1
44.76	11.06	5.47	1017.2	1087.1
44.77	11.06	5.47	1017.2	1087.2
44.78	11.06	5.47	1017.2	1087.9
44.79	11.06	5.47	1017.1	1087.0
44.8	11.06	5.47	1017.1	1087.6
44.81	11.05	5.47	1017.1	1087.1
44.82	11.07	5.47	1017.2	1087.1
44.83	11.05	5.47	1017.1	1087.0
44.84	11.07	5.48	1017.3	1087.2
44.85	11.06	5.47	1017.2	1086.8
44.86	11.06	5.47	1017.1	1087.2
44.87	11.05	5.47	1017.2	1086.4
44.88	11.06	5.47	1017.1	1086.9
44.89	11.07	5.48	1017.1	1087.0
44.9	11.06	5.47	1017.2	1086.7
44.91	11.05	5.47	1017.0	1086.8
44.92	11.05	5.47	1017.0	1087.1
44.93	11.07	5.48	1017.0	1086.7
44.94	11.06	5.47	1017.1	1086.3
44.95	11.06	5.47	1016.8	1086.3
44.96	11.06	5.48	1017.0	1087.1
44.97	11.05	5.47	1017.2	1086.4
44.98	11.06	5.48	1017.1	1086.3
44.99	11.06	5.47	1017.0	1086.5
45.0	11.07	5.48	1017.0	1086.6
45.01	11.06	5.48	1016.8	1086.3
45.02	11.05	5.47	1017.2	1086.3
45.03	11.06	5.48	1016.9	1086.1
45.04	11.06	5.47	1016.8	1086.2
45.05	11.06	5.47	1017.0	1086.1
45.06	11.06	5.47	1017.0	1086.3
45.07	11.06	5.47	1016.8	1086.0
45.08	11.06	5.47	1016.9	1086.4
45.09	11.06	5.47	1016.8	1085.8
45.1	11.06	5.47	1016.8	1085.8
45.11	11.06	5.47	1016.9	1085.6
45.12	11.07	5.47	1016.8	1086.2
45.13	11.05	5.47	1016.9	1085.8
45.14	11.06	5.47	1016.8	1085.7
45.15	11.06	5.47	1017.0	1086.0
45.16	11.07	5.47	1017.0	1085.8
45.17	11.06	5.47	1016.8	1086.0
45.18	11.06	5.47	1016.9	1085.8
45.19	11.07	5.47	1016.6	1085.8
45.2	11.06	5.47	1016.8	1086.1
45.21	11.06	5.47	1016.6	1086.0
45.22	11.06	5.47	1016.6	1085.7
45.23	11.06	5.47	1016.6	1085.8
45.24	11.06	5.47	1016.6	1086.0
45.25	11.06	5.47	1016.6	1085.5
45.26	11.06	5.48	1016.6	1085.1
45.27	11.07	5.47	1016.7	1085.6
45.28	11.07	5.47	1016.5	1085.6
45.29	11.06	5.47	1016.5	1085.2
45.3	11.06	5.47	1016.5	1085.5
45.31	11.06	5.47	1016.5	1085.3
45.32	11.05	5.47	1016.5	1085.2
45.33	11.07	5.47	1016.5	1085.7
45.34	11.06	5.47	1016.6	1084.8
45.35	11.07	5.47	1016.4	1085.1
45.36	11.06	5.47	1016.5	1085.7
45.37	11.07	5.47	1016.4	1085.6
45.38	11.05	5.47	1016.4	1085.3
45.39	11.06	5.47	1016.4	1085.4
45.4	11.06	5.47	1016.4	1085.3
45.41	11.05	5.47	1016.2	1085.4
45.42	11.06	5.47	1016.6	1085.4
45.43	11.05	5.47	1016.3	1085.4
45.44	11.06	5.47	1016.4	1085.5
45.45	11.05	5.47	1016.4	1085.5
45.46	11.05	5.47	1016.3	1085.1
45.47	11.06	5.47	1016.3	1085.0
45.48	11.05	5.47	1016.3	1085.0
45.49	11.06	5.47	1016.2	1085.1
45.5	11.06	5.47	1016.2	1085.3
45.51	11.05	5.47	1016.4	1085.4
45.52	11.07	5.47	1016.3	1085.0
45.53	11.06	5.47	1016.4	1084.6
45.54	11.05	5.47	1016.3	1085.2
45.55	11.06	5.47	1016.2	1085.0
45.56	11.06	5.47	1016.3	1084.9
45.57	11.06	5.47	1016.1	1085.1
45.58	11.06	5.47	1016.3	1084.8
45.59	11.05	5.47	1016.1	1085.0
45.6	11.06	5.47	1016.2	1085.1
45.61	11.05	5.46	1016.0	1084.5
45.62	11.07	5.47	1016.3	1084.3
45.63	11.06	5.47	1016.1	1084.8
45.64	11.06	5.47	1016.4	1084.9
45.65	11.06	5.47	1016.3	1084.6
45.66	11.06	5.47	1016.3	1084.3
45.67	11.04	5.46	1016.0	1084.4
45.68	11.06	5.47	1016.2	1084.5
45.69	11.06	5.47	1016.0	1083.9
45.7	11.06	5.47	1016.0	1084.4
45.71	11.05	5.47	1016.0	1084.8
45.72	11.05	5.46	1016.0	1084.4
45.73	11.06	5.47	1015.9	1084.5
45.74	11.06	5.47	1016.0	1084.4
45.75	11.06	5.47	1016.1	1084.3
45.76	11.07	5.47	1016.0	1084.5
45.77	11.05	5.46	1016.0	1084.3
45.78	11.07	5.47	1016.0	1084.5
45.79	11.05	5.47	1016.2	1084.3
45.8	11.07	5.47	1015.9	1084.2
45.81	11.05	5.47	1016.0	1083.9
45.82	11.06	5.47	1016.2	1084.4
45.83	11.07	5.47	1015.9	1084.2
45.84	11.07	5.47	1016.2	1084.3
45.85	11.06	5.47	1015.7	1083.8
45.86	11.06	5.47	1015.7	1084.2
45.87	11.06	5.47	1015.7	1084.3
45.88	11.05	5.46	1015.6	1084.2
45.89	11.07	5.47	1015.8	1083.6
45.9	11.06	5.47	1015.9	1083.9
45.91	11.06	5.47	1015.5	1083.5
45.92	11.06	5.47	1015.9	1083.6
45.93	11.06	5.47	1015.9	1083.6
45.94	11.07	5.47	1016.1	1083.6
45.95	11.06	5.47	1016.0	1083.8
45.96	11.06	5.47	1016.1	1084.1
45.97	11.06	5.47	1015.9	1083.7
45.98	11.06	5.46	1016.0	1084.3
45.99	11.07	5.47	1015.8	1083.9
46.0	11.06	5.46	1015.8	1083.3
46.01	11.07	5.47	1015.5	1084.0
46.02	11.05	5.46	1015.9	1083.8
46.03	11.06	5.46	1015.9	1083.7
46.04	11.06	5.47	1015.7	1084.0
46.05	11.06	5.47	1015.9	1083.3
46.06	11.05	5.46	1015.9	1083.8
46.07	11.07	5.47	1015.8	1083.3
46.08	11.04	5.46	1015.6	1083.4
46.09	11.07	5.47	1015.6	1083.5
46.1	11.05	5.46	1015.7	1083.1
46.11	11.06	5.46	1015.8	1083.6
46.12	11.05	5.46	1015.7	1083.0
46.13	11.06	5.47	1015.6	1083.1
46.14	11.07	5.47	1015.6	1083.3
46.15	11.05	5.46	1015.7	1083.2
46.16	11.06	5.46	1015.8	1083.2
46.17	11.05	5.46	1015.8	1083.0
46.18	11.06	5.47	1015.8	1083.6
46.19	11.05	5.46	1015.7	1083.2
46.2	11.06	5.46	1015.9	1082.7
46.21	11.04	5.46	1015.8	1083.7
46.22	11.06	5.46	1015.8	1083.4
46.23	11.06	5.47	1015.6	1083.0
46.24	11.06	5.47	1015.8	1082.7
46.25	11.06	5.47	1015.4	1083.1
46.26	11.05	5.46	1015.8	1083.0
46.27	11.06	5.47	1015.5	1083.4
46.28	11.05	5.46	1015.5	1083.1
46.29	11.06	5.46	1015.5	1082.9
46.3	11.07	5.46	1015.7	1082.9
46.31	11.06	5.46	1015.1	1082.8
46.32	11.06	5.46	1015.4	1082.8
46.33	11.07	5.47	1015.2	1082.9
46.34	11.06	5.46	1015.4	1082.9
46.35	11.06	5.47	1015.4	1082.4
46.36	11.06	5.46	1015.6	1082.5
46.37	11.06	5.46	1015.3	1082.9
46.38	11.07	5.46	1015.2	1082.6
46.39	11.06	5.46	1015.2	1082.5
46.4	11.07	5.46	1015.1	1082.8
46.41	11.06	5.47	1015.2	1082.6
46.42	11.06	5.46	1015.1	1082.1
46.43	11.07	5.47	1015.3	1081.9
46.44	11.06	5.46	1015.2	1082.1
46.45	11.05	5.46	1015.1	1082.5
46.46	11.06	5.47	1015.2	1082.4
46.47	11.05	5.46	1015.3	1081.9
46.48	11.06	5.46	1015.1	1081.8
46.49	11.05	5.46	1015.1	1082.1
46.5	11.06	5.46	1015.1	1081.9
46.51	11.05	5.46	1014.8	1081.4
46.52	11.06	5.46	1014.9	1082.2
46.53	11.05	5.46	1014.8	1082.2
46.54	11.05	5.46	1015.0	1081.4
46.55	11.06	5.46	1014.8	1081.5
46.56	11.06	5.46	1015.0	1082.1
46.57	11.06	5.46	1014.9	1082.4
46.58	11.07	5.46	1015.0	1081.9
46.59	11.05	5.46	1014.8	1081.9
46.6	11.06	5.46	1014.8	1082.1
46.61	11.06	5.46	1015.0	1081.7
46.62	11.05	5.46	1015.0	1081.8
46.63	11.07	5.46	1015.0	1081.3
46.64	11.06	5.46	1014.9	1081.5
46.65	11.07	5.46	1015.0	1081.5
46.66	11.07	5.47	1014.8	1081.8
46.67	11.06	5.46	1015.0	1081.7
46.68	11.05	5.46	1014.8	1081.6
46.69	11.07	5.47	1014.8	1081.3
46.7	11.07	5.46	1015.0	1081.3
46.71	11.06	5.46	1014.9	1080.6
46.72	11.06	5.46	1014.9	1081.5
46.73	11.06	5.46	1015.0	1081.8
46.74	11.05	5.46	1015.0	1081.7
46.75	11.07	5.46	1015.0	1081.2
46.76	11.06	5.46	1014.9	1081.0
46.77	11.08	5.46	1014.8	1081.1
46.78	11.05	5.46	1014.9	1081.2
46.79	11.07	5.46	1014.9	1081.2
46.8	11.05	5.46	1014.8	1081.6
46.81	11.07	5.46	1014.7	1081.6
46.82	11.07	5.46	1014.6	1081.5
46.83	11.06	5.46	1014.6	1081.0
46.84	11.06	5.46	1014.9	1081.0
46.85	11.05	5.46	1014.6	1081.0
46.86	11.05	5.46	1014.6	1081.6
46.87	11.06	5.46	1014.5	1081.4
46.88	11.05	5.46	1014.6	1081.5
46.89	11.06	5.46	1014.6	1081.1
46.9	11.06	5.46	1014.4	1081.7
46.91	11.06	5.46	1014.6	1080.9
46.92	11.06	5.46	1014.6	1081.0
46.93	11.06	5.46	1014.6	1081.4
46.94	11.05	5.46	1014.6	1081.3
46.95	11.07	5.46	1014.5	1081.0
46.96	11.06	5.46	1014.6	1081.0
46.97	11.05	5.46	1014.2	1081.0
46.98	11.05	5.46	1014.7	1081.0
46.99	11.06	5.46	1014.2	1080.4
47.0	11.07	5.46	1014.5	1081.1
47.01	11.06	5.46	1014.3	1080.5
47.02	11.05	5.46	1014.8	1080.6
47.03	11.06	5.46	1014.2	1080.8
47.04	11.07	5.46	1014.6	1080.8
47.05	11.06	5.46	1014.4	1080.9
47.06	11.07	5.46	1014.5	1080.8
47.07	11.06	5.46	1014.1	1080.8
47.08	11.06	5.45	1014.4	1080.8
47.09	11.05	5.45	1014.3	1080.6
47.1	11.07	5.46	1014.4	1081.0
47.11	11.06	5.46	1014.1	1080.6
47.12	11.07	5.46	1014.4	1080.7
47.13	11.06	5.46	1014.4	1081.0
47.14	11.06	5.46	1014.2	1080.6
47.15	11.06	5.46	1014.4	1080.5
47.16	11.08	5.46	1014.4	1080.7
47.17	11.05	5.46	1014.4	1080.7
47.18	11.06	5.45	1014.4	1080.6
47.19	11.06	5.46	1014.4	1080.8
47.2	11.06	5.46	1014.3	1080.6
47.21	11.05	5.46	1014.1	1080.5
47.22	11.05	5.45	1014.2	1080.5
47.23	11.05	5.46	1014.2	1080.1
47.24	11.06	5.46	1014.3	1080.4
47.25	11.06	5.46	1014.1	1080.4
47.26	11.06	5.46	1014.0	1080.4
47.27	11.06	5.45	1014.2	1080.0
47.28	11.06	5.46	1014.6	1080.4
47.29	11.06	5.46	1014.3	1080.3
47.3	11.06	5.46	1014.1	1080.5
47.31	11.06	5.45	1014.1	1080.0
47.32	11.05	5.45	1014.4	1080.2
47.33	11.06	5.45	1014.1	1079.9
47.34	11.07	5.46	1014.3	1080.0
47.35	11.07	5.46	1014.0	1079.5
47.36	11.07	5.46	1014.1	1080.1
47.37	11.06	5.46	1014.1	1080.2
47.38	11.05	5.45	1014.2	1080.3
47.39	11.06	5.46	1014.2	1079.9
47.4	11.05	5.45	1014.2	1079.8
47.41	11.06	5.45	1014.2	1079.8
47.42	11.06	5.46	1014.0	1080.2
47.43	11.07	5.46	1014.2	1079.7
47.44	11.06	5.46	1013.9	1080.0
47.45	11.06	5.46	1013.9	1080.2
47.46	11.06	5.46	1014.1	1080.0
47.47	11.06	5.45	1014.0	1080.0
47.48	11.05	5.46	1014.0	1080.0
47.49	11.06	5.46	1013.9	1079.8
47.5	11.05	5.45	1014.0	1079.5
47.51	11.05	5.45	1013.9	1079.5
47.52	11.07	5.46	1014.2	1079.1
47.53	11.06	5.45	1013.9	1079.4
47.54	11.06	5.45	1014.2	1079.6
47.55	11.07	5.46	1014.0	1079.6
47.56	11.05	5.45	1013.9	1079.7
47.57	11.06	5.46	1014.1	1079.5
47.58	11.07	5.46	1013.8	1079.3
47.59	11.06	5.45	1014.0	1079.6
47.6	11.05	5.45	1014.0	1079.7
47.61	11.06	5.45	1014.0	1079.7
47.62	11.07	5.46	1014.0	1079.6
47.63	11.06	5.46	1014.0	1079.4
47.64	11.06	5.46	1014.1	1079.5
47.65	11.06	5.45	1014.0	1079.6
47.66	11.06	5.46	1014.0	1079.0
47.67	11.06	5.45	1013.6	1079.2
47.68	11.06	5.45	1013.8	1079.9
47.69	11.06	5.45	1013.6	1079.3
47.7	11.06	5.45	1013.7	1079.0
47.71	11.05	5.45	1013.8	1079.3
47.72	11.05	5.45	1013.7	1079.2
47.73	11.06	5.46	1013.5	1079.2
47.74	11.05	5.45	1013.7	1078.7
47.75	11.06	5.45	1013.4	1079.0
47.76	11.06	5.45	1013.4	1078.8
47.77	11.06	5.45	1013.6	1078.8
47.78	11.06	5.45	1013.8	1078.8
47.79	11.05	5.45	1013.6	1078.6
47.8	11.07	5.46	1013.6	1078.6
47.81	11.05	5.45	1013.4	1078.6
47.82	11.07	5.46	1013.8	1078.0
47.83	11.06	5.46	1013.5	1078.7
47.84	11.06	5.45	1013.5	1079.0
47.85	11.05	5.45	1013.6	1078.9
47.86	11.06	5.45	1013.9	1078.7
47.87	11.06	5.45	1013.5	1078.8
47.88	11.06	5.45	1013.5	1078.8
47.89	11.05	5.45	1013.4	1078.9
47.9	11.06	5.45	1013.5	1079.0
47.91	11.07	5.46	1013.5	1079.1
47.92	11.06	5.45	1013.5	1078.6
47.93	11.06	5.45	1013.5	1078.5
47.94	11.06	5.45	1013.4	1078.6
47.95	11.04	5.44	1013.5	1078.7
47.96	11.05	5.45	1013.4	1078.7
47.97	11.05	5.45	1013.3	1078.6
47.98	11.06	5.45	1013.5	1078.4
47.99	11.06	5.45	1013.5	1078.5
48.0	11.06	5.45	1013.4	1078.6
48.01	11.07	5.46	1013.5	1078.6
48.02	11.06	5.45	1013.5	1078.2
48.03	11.06	5.45	1013.5	1078.6
48.04	11.06	5.45	1013.5	1078.5
48.05	11.06	5.45	1013.3	1078.7
48.06	11.06	5.45	1013.3	1078.5
48.07	11.05	5.45	1013.2	1078.2
48.08	11.05	5.45	1013.3	1078.6
48.09	11.07	5.45	1013.2	1078.2
48.1	11.06	5.45	1013.2	1078.1
48.11	11.06	5.45	1013.3	1078.4
48.12	11.06	5.45	1013.3	1078.5
48.13	11.06	5.45	1013.2	1078.6
48.14	11.06	5.45	1013.1	1078.1
48.15	11.06	5.45	1013.2	1078.4
48.16	11.05	5.45	1013.4	1078.5
48.17	11.07	5.45	1013.1	1078.6
48.18	11.06	5.45	1013.3	1078.0
48.19	11.07	5.45	1013.2	1078.3
48.2	11.05	5.45	1013.3	1078.5
48.21	11.07	5.45	1013.2	1078.2
48.22	11.06	5.45	1013.3	1077.4
48.23	11.05	5.45	1013.0	1078.2
48.24	11.06	5.45	1013.2	1078.3
48.25	11.06	5.45	1013.0	1078.3
48.26	11.05	5.45	1013.1	1077.8
48.27	11.07	5.45	1013.0	1078.2
48.28	11.05	5.45	1013.2	1078.4
48.29	11.06	5.45	1012.7	1078.2
48.3	11.06	5.45	1013.3	1078.1
48.31	11.06	5.45	1013.2	1078.0
48.32	11.05	5.45	1013.1	1078.4
48.33	11.07	5.45	1012.8	1077.8
48.34	11.06	5.45	1013.0	1078.0
48.35	11.05	5.45	1013.0	1078.2
48.36	11.06	5.45	1013.2	1078.4
48.37	11.06	5.45	1013.0	1078.4
48.38	11.07	5.45	1013.2	1077.8
48.39	11.06	5.45	1013.1	1078.2
48.4	11.07	5.45	1013.1	1078.3
48.41	11.05	5.45	1012.9	1078.0
48.42	11.06	5.45	1012.9	1077.3
48.43	11.06	5.45	1013.1	1077.9
48.44	11.06	5.45	1013.2	1078.1
48.45	11.07	5.45	1012.9	1077.8
48.46	11.05	5.45	1013.1	1077.6
48.47	11.06	5.45	1012.9	1078.4
48.48	11.06	5.45	1013.1	1078.2
48.49	11.05	5.45	1013.0	1077.6
48.5	11.07	5.45	1013.1	1078.2
48.51	11.05	5.45	1013.0	1078.2
48.52	11.07	5.45	1012.9	1077.8
48.53	11.07	5.45	1013.0	1077.4
48.54	11.05	5.45	1012.9	1078.0
48.55	11.07	5.45	1012.9	1078.0
48.56	11.06	5.45	1013.0	1078.0
48.57	11.06	5.45	1012.7	1077.3
48.58	11.07	5.45	1012.9	1077.6
48.59	11.05	5.44	1012.8	1077.5
48.6	11.06	5.45	1012.9	1077.8
48.61	11.06	5.45	1013.0	1077.4
48.62	11.07	5.45	1013.0	1077.0
48.63	11.08	5.46	1012.7	1078.4
48.64	11.05	5.45	1012.8	1077.9
48.65	11.06	5.45	1012.8	1077.3
48.66	11.06	5.45	1012.7	1077.4
48.67	11.06	5.45	1012.9	1077.1
48.68	11.06	5.45	1012.8	1076.9
48.69	11.06	5.45	1012.6	1076.5
48.7	11.06	5.45	1012.7	1076.4
48.71	11.07	5.45	1012.5	1076.8
48.72	11.05	5.44	1013.0	1076.8
48.73	11.06	5.45	1012.4	1076.4
48.74	11.05	5.45	1012.7	1076.3
48.75	11.05	5.45	1012.6	1076.4
48.76	11.05	5.45	1012.7	1076.5
48.77	11.05	5.45	1012.5	1076.7
48.78	11.06	5.45	1012.6	1076.2
48.79	11.06	5.45	1012.6	1075.6
48.8	11.06	5.45	1012.7	1076.3
48.81	11.06	5.45	1012.5	1076.2
48.82	11.07	5.45	1012.8	1076.1
48.83	11.06	5.45	1012.6	1076.3
48.84	11.05	5.45	1012.7	1076.6
48.85	11.06	5.45	1012.8	1076.0
48.86	11.06	5.45	1012.8	1076.0
48.87	11.07	5.45	1012.6	1075.9
48.88	11.05	5.45	1012.6	1076.0
48.89	11.06	5.45	1012.4	1076.1
48.9	11.05	5.44	1012.6	1076.0
48.91	11.07	5.45	1012.5	1076.2
48.92	11.06	5.45	1012.7	1076.0
48.93	11.06	5.44	1012.4	1076.4
48.94	11.06	5.45	1012.7	1075.9
48.95	11.07	5.45	1012.4	1076.4
48.96	11.06	5.45	1012.8	1076.2
48.97	11.06	5.45	1012.4	1075.8
48.98	11.06	5.45	1012.3	1076.6
48.99	11.07	5.45	1012.4	1076.4
49.0	11.05	5.44	1012.4	1076.5
49.01	11.06	5.45	1012.5	1075.7
49.02	11.07	5.45	1012.5	1076.2
49.03	11.06	5.45	1012.3	1075.9
49.04	11.07	5.45	1012.3	1076.0
49.05	11.05	5.44	1012.4	1076.0
49.06	11.06	5.45	1012.2	1076.4
49.07	11.06	5.44	1012.4	1076.1
49.08	11.05	5.44	1012.2	1076.1
49.09	11.05	5.44	1012.1	1076.2
49.1	11.07	5.45	1012.4	1076.1
49.11	11.06	5.45	1012.4	1075.9
49.12	11.07	5.45	1012.4	1075.5
49.13	11.05	5.44	1012.4	1075.4
49.14	11.06	5.44	1012.3	1075.4
49.15	11.06	5.45	1012.1	1075.7
49.16	11.05	5.44	1012.4	1075.2
49.17	11.05	5.45	1012.4	1075.0
49.18	11.08	5.45	1012.4	1075.8
49.19	11.05	5.45	1012.0	1075.5
49.2	11.07	5.45	1012.4	1075.6
49.21	11.06	5.45	1012.2	1075.4
49.22	11.07	5.45	1012.0	1075.7
49.23	11.06	5.45	1012.1	1075.5
49.24	11.05	5.44	1012.1	1075.2
49.25	11.05	5.44	1011.9	1074.9
49.26	11.06	5.44	1012.2	1075.4
49.27	11.05	5.44	1012.2	1075.5
49.28	11.07	5.45	1012.0	1075.5
49.29	11.05	5.44	1012.2	1075.4
49.3	11.07	5.45	1011.9	1075.9
49.31	11.06	5.44	1012.1	1075.7
49.32	11.06	5.44	1012.0	1075.4
49.33	11.06	5.44	1012.0	1074.6
49.34	11.07	5.44	1012.1	1075.0
49.35	11.06	5.45	1012.1	1075.6
49.36	11.07	5.44	1012.3	1075.0
49.37	11.05	5.44	1012.1	1075.3
49.38	11.07	5.45	1012.2	1075.3
49.39	11.07	5.44	1012.0	1075.3
49.4	11.05	5.44	1012.3	1075.0
49.41	11.05	5.44	1012.2	1074.7
49.42	11.06	5.44	1012.2	1075.6
49.43	11.06	5.44	1011.8	1075.2
49.44	11.06	5.44	1012.0	1075.2
49.45	11.07	5.45	1011.9	1075.4
49.46	11.06	5.45	1011.9	1075.4
49.47	11.05	5.44	1011.9	1075.0
49.48	11.06	5.44	1012.0	1074.4
49.49	11.06	5.44	1012.1	1074.7
49.5	11.05	5.44	1012.0	1075.5
49.51	11.06	5.44	1012.0	1075.1
49.52	11.05	5.44	1011.8	1074.2
49.53	11.07	5.44	1011.9	1074.7
49.54	11.06	5.45	1012.0	1075.3
49.55	11.06	5.44	1012.1	1074.8
49.56	11.06	5.45	1012.0	1074.6
49.57	11.05	5.44	1012.0	1075.1
49.58	11.06	5.44	1012.1	1075.2
49.59	11.07	5.45	1012.3	1074.6
49.6	11.05	5.44	1011.9	1074.2
49.61	11.06	5.44	1011.9	1074.3
49.62	11.06	5.44	1012.2	1074.3
49.63	11.05	5.44	1012.1	1074.4
49.64	11.07	5.45	1012.0	1074.0
49.65	11.06	5.44	1012.0	1074.5
49.66	11.06	5.44	1011.9	1075.0
49.67	11.06	5.44	1012.0	1074.2
49.68	11.06	5.44	1012.1	1074.2
49.69	11.06	5.44	1011.8	1073.9
49.7	11.06	5.44	1012.0	1074.5
49.71	11.06	5.44	1011.9	1074.4
49.72	11.07	5.45	1011.9	1074.7
49.73	11.06	5.44	1011.9	1074.4
49.74	11.07	5.44	1012.0	1074.4
49.75	11.06	5.44	1011.9	1074.4
49.76	11.06	5.44	1011.9	1074.2
49.77	11.06	5.44	1011.8	1074.6
49.78	11.06	5.44	1012.0	1074.6
49.79	11.06	5.44	1011.9	1074.1
49.8	11.07	5.45	1011.8	1073.8
49.81	11.05	5.44	1011.8	1074.2
49.82	11.07	5.44	1011.9	1074.2
49.83	11.05	5.44	1011.9	1074.2
49.84	11.06	5.44	1011.7	1073.8
49.85	11.05	5.44	1011.9	1074.0
49.86	11.06	5.44	1011.9	1073.3
49.87	11.06	5.44	1011.6	1073.7
49.88	11.07	5.44	1011.9	1073.8
49.89	11.05	5.44	1011.9	1074.2
49.9	11.07	5.44	1011.8	1073.8
49.91	11.05	5.44	1011.8	1073.2
49.92	11.07	5.44	1011.7	1073.2
49.93	11.04	5.44	1011.9	1073.8
49.94	11.06	5.44	1011.9	1073.8
49.95	11.06	5.44	1011.7	1073.4
49.96	11.07	5.44	1011.8	1073.4
49.97	11.06	5.44	1011.5	1073.7
49.98	11.06	5.44	1011.6	1073.5
49.99	11.05	5.44	1011.7	1072.9
50.0	11.06	5.44	1011.8	1073.1
50.01	11.05	5.44	1011.8	1073.5
50.02	11.06	5.44	1011.5	1073.4
50.03	11.06	5.44	1011.7	1073.3
50.04	11.06	5.44	1011.7	1073.3
50.05	11.06	5.44	1011.6	1073.8
50.06	11.06	5.44	1011.8	1073.5
50.07	11.06	5.44	1011.8	1073.6
50.08	11.06	5.44	1011.8	1073.4
50.09	11.06	5.44	1011.7	1073.6
50.1	11.07	5.44	1011.8	1073.8
50.11	11.07	5.44	1011.6	1073.6
50.12	11.07	5.44	1011.8	1073.3
50.13	11.06	5.44	1011.6	1074.0
50.14	11.06	5.44	1011.7	1073.6
50.15	11.06	5.44	1011.6	1073.5
50.16	11.07	5.44	1011.7	1073.4
50.17	11.06	5.44	1011.7	1073.6
50.18	11.07	5.44	1011.7	1073.6
50.19	11.07	5.44	1011.5	1073.4
50.2	11.07	5.44	1011.5	1073.4
50.21	11.06	5.44	1011.7	1073.0
50.22	11.07	5.44	1011.6	1073.2
50.23	11.05	5.44	1011.3	1073.1
50.24	11.06	5.44	1011.2	1073.4
50.25	11.05	5.44	1011.3	1073.3
50.26	11.06	5.44	1011.5	1073.3
50.27	11.06	5.44	1011.5	1073.3
50.28	11.05	5.44	1011.4	1073.0
50.29	11.07	5.44	1011.4	1073.0
50.3	11.05	5.44	1011.4	1073.3
50.31	11.06	5.44	1011.4	1073.1
50.32	11.05	5.44	1011.5	1072.6
50.33	11.06	5.44	1011.5	1073.4
50.34	11.07	5.44	1011.3	1073.1
50.35	11.06	5.44	1011.6	1072.6
50.36	11.07	5.44	1011.2	1072.9
50.37	11.05	5.44	1011.6	1072.8
50.38	11.06	5.44	1011.4	1073.2
50.39	11.06	5.44	1011.5	1072.5
50.4	11.06	5.44	1011.4	1073.1
50.41	11.06	5.44	1011.4	1073.2
50.42	11.06	5.44	1011.7	1073.2
50.43	11.07	5.44	1011.4	1072.4
50.44	11.06	5.44	1011.5	1072.9
50.45	11.06	5.44	1011.4	1072.8
50.46	11.05	5.43	1011.6	1073.2
50.47	11.06	5.44	1011.5	1072.4
50.48	11.06	5.44	1011.5	1073.2
50.49	11.07	5.44	1011.3	1072.7
50.5	11.06	5.44	1011.4	1072.9
50.51	11.06	5.44	1011.5	1072.4
50.52	11.07	5.44	1011.5	1073.6
50.53	11.05	5.44	1011.5	1072.9
50.54	11.06	5.44	1011.4	1073.4
50.55	11.06	5.44	1011.4	1072.5
50.56	11.05	5.43	1011.5	1072.5
50.57	11.06	5.44	1011.4	1072.6
50.58	11.07	5.44	1011.4	1072.6
50.59	11.05	5.43	1011.2	1072.0
50.6	11.06	5.44	1011.5	1072.5
50.61	11.05	5.43	1011.3	1072.2
50.62	11.05	5.43	1011.4	1072.5
50.63	11.06	5.44	1011.3	1072.6
50.64	11.07	5.44	1011.2	1072.8
50.65	11.06	5.44	1011.3	1072.0
50.66	11.05	5.43	1011.4	1072.3
50.67	11.06	5.44	1011.2	1071.9
50.68	11.07	5.44	1011.2	1072.1
50.69	11.05	5.43	1011.3	1072.2
50.7	11.06	5.44	1011.2	1072.1
50.71	11.05	5.44	1011.3	1071.6
50.72	11.07	5.44	1011.5	1072.5
50.73	11.06	5.44	1011.2	1071.9
50.74	11.06	5.44	1011.2	1072.2
50.75	11.06	5.44	1011.1	1071.4
50.76	11.06	5.44	1011.2	1071.9
50.77	11.05	5.44	1011.1	1071.6
50.78	11.06	5.44	1011.2	1072.2
50.79	11.06	5.44	1011.1	1072.3
50.8	11.06	5.44	1011.1	1072.4
50.81	11.06	5.44	1011.2	1072.0
50.82	11.06	5.44	1011.3	1071.7
50.83	11.07	5.44	1011.1	1071.7
50.84	11.05	5.44	1011.2	1071.7
50.85	11.05	5.44	1010.9	1071.8
50.86	11.06	5.44	1011.1	1071.6
50.87	11.07	5.44	1011.1	1071.6
50.88	11.06	5.44	1011.1	1072.1
50.89	11.07	5.44	1011.2	1072.1
50.9	11.06	5.44	1011.0	1071.9
50.91	11.08	5.44	1010.8	1072.2
50.92	11.06	5.44	1011.1	1072.3
50.93	11.07	5.44	1010.8	1072.5
50.94	11.07	5.44	1010.9	1072.1
50.95	11.07	5.44	1010.6	1072.0
50.96	11.07	5.44	1010.8	1072.2
50.97	11.07	5.44	1010.7	1071.6
50.98	11.05	5.43	1010.6	1071.8
50.99	11.06	5.44	1010.8	1071.3
51.0	11.05	5.43	1010.5	1072.2
51.01	11.06	5.44	1010.4	1072.1
51.02	11.06	5.44	1010.8	1071.9
51.03	11.07	5.44	1010.7	1071.7
51.04	11.06	5.44	1010.6	1071.6
51.05	11.06	5.44	1010.6	1071.4
51.06	11.05	5.44	1010.5	1071.2
51.07	11.05	5.43	1010.6	1071.6
51.08	11.05	5.43	1010.6	1071.5
51.09	11.06	5.44	1010.6	1071.4
51.1	11.05	5.43	1010.5	1071.1
51.11	11.06	5.44	1010.7	1071.3
51.12	11.06	5.44	1010.8	1071.6
51.13	11.05	5.43	1010.7	1071.4
51.14	11.06	5.43	1010.7	1070.9
51.15	11.06	5.44	1010.7	1071.3
51.16	11.06	5.44	1010.5	1071.3
51.17	11.07	5.44	1010.6	1071.2
51.18	11.06	5.44	1010.6	1071.1
51.19	11.05	5.44	1010.4	1071.2
51.2	11.05	5.43	1010.6	1070.9
51.21	11.05	5.43	1010.4	1071.0
51.22	11.07	5.44	1010.4	1071.2
51.23	11.06	5.44	1010.3	1071.0
51.24	11.06	5.43	1010.7	1071.2
51.25	11.06	5.44	1010.2	1071.2
51.26	11.06	5.43	1010.5	1070.9
51.27	11.06	5.44	1010.3	1071.3
51.28	11.05	5.43	1010.4	1070.7
51.29	11.05	5.43	1010.3	1070.6
51.3	11.07	5.44	1010.2	1070.7
51.31	11.06	5.43	1010.4	1071.2
51.32	11.07	5.44	1010.2	1071.1
51.33	11.06	5.43	1010.3	1070.8
51.34	11.05	5.43	1010.1	1070.8
51.35	11.06	5.43	1010.2	1071.2
51.36	11.06	5.43	1010.2	1070.8
51.37	11.06	5.44	1010.3	1070.6
51.38	11.07	5.44	1010.4	1070.4
51.39	11.05	5.43	1010.2	1070.8
51.4	11.05	5.43	1010.2	1070.9
51.41	11.06	5.43	1010.0	1070.3
51.42	11.05	5.43	1010.3	1070.4
51.43	11.06	5.44	1009.9	1070.8
51.44	11.06	5.43	1010.1	1070.4
51.45	11.07	5.44	1010.2	1070.6
51.46	11.06	5.43	1009.9	1070.4
51.47	11.06	5.43	1010.1	1070.6
51.48	11.06	5.44	1010.0	1070.7
51.49	11.06	5.44	1009.8	1070.4
51.5	11.07	5.44	1010.0	1070.5
51.51	11.05	5.43	1009.8	1071.1
51.52	11.05	5.43	1010.0	1071.0
51.53	11.06	5.43	1009.9	1070.5
51.54	11.06	5.43	1010.1	1070.6
51.55	11.06	5.43	1010.1	1070.6
51.56	11.06	5.44	1010.1	1070.6
51.57	11.07	5.44	1009.8	1070.6
51.58	11.06	5.43	1010.0	1070.7
51.59	11.06	5.44	1010.0	1070.5
51.6	11.04	5.43	1009.8	1070.1
51.61	11.06	5.44	1009.9	1070.4
51.62	11.06	5.43	1009.7	1070.2
51.63	11.07	5.43	1009.7	1070.4
51.64	11.05	5.43	1009.7	1070.5
51.65	11.07	5.43	1009.9	1070.0
51.66	11.07	5.44	1009.6	1070.3
51.67	11.07	5.44	1009.7	1070.4
51.68	11.05	5.43	1009.8	1070.3
51.69	11.07	5.43	1009.8	1069.6
51.7	11.07	5.43	1010.0	1069.9
51.71	11.07	5.43	1009.8	1070.0
51.72	11.06	5.44	1009.8	1070.2
51.73	11.06	5.43	1009.6	1070.1
51.74	11.05	5.43	1009.7	1070.2
51.75	11.07	5.43	1009.7	1069.9
51.76	11.06	5.43	1009.8	1070.1
51.77	11.07	5.44	1009.8	1069.6
51.78	11.06	5.43	1010.0	1069.6
51.79	11.06	5.43	1010.0	1069.4
51.8	11.06	5.43	1010.1	1069.9
51.81	11.06	5.43	1010.0	1069.8
51.82	11.05	5.43	1009.9	1069.8
51.83	11.06	5.43	1009.9	1069.6
51.84	11.06	5.43	1010.0	1070.2
51.85	11.05	5.43	1009.8	1069.7
51.86	11.06	5.43	1009.7	1070.0
51.87	11.06	5.43	1009.9	1069.8
51.88	11.06	5.43	1009.8	1069.6
51.89	11.06	5.44	1009.7	1069.3
51.9	11.06	5.43	1009.9	1069.8
51.91	11.05	5.43	1009.9	1069.8
51.92	11.06	5.43	1009.7	1069.5
51.93	11.06	5.43	1009.7	1070.0
51.94	11.05	5.43	1009.8	1070.0
51.95	11.07	5.43	1009.8	1069.7
51.96	11.06	5.43	1009.7	1069.1
51.97	11.07	5.43	1010.0	1069.1
51.98	11.06	5.43	1010.0	1069.6
51.99	11.06	5.43	1009.9	1069.9
52.0	11.07	5.43	1009.9	1069.7
52.01	11.06	5.43	1009.7	1069.8
52.02	11.07	5.43	1009.7	1070.1
52.03	11.07	5.44	1009.7	1069.6
52.04	11.06	5.43	1009.8	1070.2
52.05	11.06	5.43	1009.9	1069.5
52.06	11.05	5.43	1009.7	1069.5
52.07	11.05	5.43	1009.8	1069.6
52.08	11.06	5.43	1009.8	1069.6
52.09	11.06	5.43	1009.8	1069.5
52.1	11.07	5.44	1009.5	1069.2
52.11	11.06	5.43	1009.8	1069.2
52.12	11.06	5.43	1009.7	1069.3
52.13	11.05	5.43	1009.7	1069.3
52.14	11.06	5.43	1009.7	1068.8
52.15	11.06	5.43	1009.6	1069.0
52.16	11.06	5.43	1009.7	1069.0
52.17	11.06	5.43	1009.7	1069.1
52.18	11.06	5.43	1009.8	1069.3
52.19	11.04	5.43	1009.7	1068.7
52.2	11.06	5.43	1009.7	1069.3
52.21	11.05	5.43	1009.8	1069.0
52.22	11.06	5.43	1009.8	1069.2
52.23	11.07	5.43	1009.7	1069.0
52.24	11.06	5.43	1009.9	1069.2
52.25	11.06	5.43	1009.6	1068.8
52.26	11.05	5.43	1009.7	1068.9
52.27	11.05	5.43	1009.7	1068.9
52.28	11.05	5.43	1009.6	1069.0
52.29	11.06	5.43	1009.7	1068.7
52.3	11.05	5.43	1009.7	1068.9
52.31	11.06	5.43	1009.8	1068.9
52.32	11.05	5.43	1009.7	1069.3
52.33	11.06	5.43	1009.7	1069.1
52.34	11.06	5.43	1009.6	1069.0
52.35	11.06	5.43	1009.6	1068.5
52.36	11.06	5.43	1009.6	1068.9
52.37	11.06	5.43	1009.5	1068.6
52.38	11.05	5.43	1009.6	1068.6
52.39	11.07	5.43	1009.6	1068.1
52.4	11.06	5.43	1009.4	1068.4
52.41	11.08	5.44	1009.3	1068.7
52.42	11.06	5.43	1009.6	1068.8
52.43	11.05	5.42	1009.6	1068.2
52.44	11.06	5.43	1009.4	1069.3
52.45	11.07	5.43	1009.6	1069.0
52.46	11.06	5.43	1009.5	1068.9
52.47	11.08	5.43	1009.7	1068.0
52.48	11.06	5.43	1009.5	1068.9
52.49	11.07	5.43	1009.7	1068.6
52.5	11.06	5.43	1009.4	1069.3
52.51	11.05	5.43	1009.6	1068.6
52.52	11.07	5.43	1009.4	1069.1
52.53	11.06	5.43	1009.3	1068.2
52.54	11.06	5.43	1009.3	1068.5
52.55	11.05	5.43	1009.5	1068.4
52.56	11.06	5.43	1009.4	1069.1
52.57	11.05	5.43	1009.3	1068.6
52.58	11.06	5.43	1009.4	1068.5
52.59	11.06	5.43	1009.4	1068.6
52.6	11.06	5.43	1009.3	1068.6
52.61	11.06	5.43	1009.2	1068.3
52.62	11.05	5.43	1009.3	1068.6
52.63	11.06	5.43	1009.2	1068.4
52.64	11.06	5.43	1009.4	1069.1
52.65	11.06	5.43	1009.3	1068.5
52.66	11.06	5.43	1009.1	1068.5
52.67	11.05	5.43	1009.1	1068.2
52.68	11.07	5.43	1009.2	1068.5
52.69	11.05	5.43	1009.0	1068.0
52.7	11.07	5.43	1009.2	1068.1
52.71	11.06	5.43	1009.1	1068.2
52.72	11.06	5.43	1009.3	1068.5
52.73	11.06	5.43	1009.3	1067.9
52.74	11.07	5.43	1009.2	1067.8
52.75	11.06	5.43	1009.2	1067.4
52.76	11.06	5.43	1009.3	1068.5
52.77	11.04	5.42	1009.2	1068.3
52.78	11.06	5.43	1009.1	1067.7
52.79	11.06	5.43	1009.3	1067.9
52.8	11.06	5.43	1009.4	1068.0
52.81	11.06	5.43	1009.3	1067.8
52.82	11.06	5.43	1009.1	1068.0
52.83	11.06	5.43	1009.2	1067.5
52.84	11.06	5.43	1009.2	1068.0
52.85	11.06	5.43	1009.3	1067.9
52.86	11.06	5.43	1009.4	1067.6
52.87	11.05	5.43	1009.1	1067.7
52.88	11.06	5.43	1009.4	1067.8
52.89	11.06	5.43	1009.2	1067.8
52.9	11.06	5.43	1009.2	1067.7
52.91	11.05	5.43	1009.0	1068.0
52.92	11.06	5.43	1009.0	1067.9
52.93	11.06	5.43	1009.0	1067.6
52.94	11.06	5.43	1009.1	1067.2
52.95	11.06	5.43	1009.0	1068.0
52.96	11.07	5.43	1009.2	1067.7
52.97	11.06	5.43	1009.2	1067.7
52.98	11.07	5.43	1009.1	1067.6
52.99	11.05	5.42	1009.0	1067.6
53.0	11.07	5.43	1008.8	1067.6
53.01	11.06	5.43	1008.9	1067.2
53.02	11.06	5.43	1009.1	1066.8
53.03	11.08	5.43	1009.2	1067.4
53.04	11.06	5.43	1009.2	1067.6
53.05	11.07	5.43	1008.8	1067.7
53.06	11.06	5.43	1008.8	1067.4
53.07	11.07	5.43	1008.9	1067.4
53.08	11.06	5.43	1009.0	1067.4
53.09	11.07	5.43	1008.8	1067.4
53.1	11.06	5.43	1009.0	1067.1
53.11	11.06	5.43	1009.0	1067.4
53.12	11.06	5.43	1008.9	1067.2
53.13	11.06	5.43	1008.9	1067.4
53.14	11.06	5.43	1008.8	1067.0
53.15	11.06	5.43	1008.8	1066.8
53.16	11.06	5.43	1009.0	1067.2
53.17	11.07	5.43	1008.8	1067.5
53.18	11.06	5.42	1008.8	1067.5
53.19	11.07	5.43	1008.9	1067.7
53.2	11.06	5.43	1008.8	1067.3
53.21	11.07	5.43	1009.0	1067.3
53.22	11.06	5.43	1008.7	1067.1
53.23	11.05	5.42	1008.7	1067.3
53.24	11.07	5.43	1008.8	1067.0
53.25	11.07	5.43	1008.8	1067.7
53.26	11.05	5.42	1008.6	1066.9
53.27	11.07	5.43	1008.8	1067.3
53.28	11.05	5.42	1008.6	1067.2
53.29	11.05	5.43	1008.8	1066.9
53.3	11.06	5.43	1008.6	1066.3
53.31	11.06	5.43	1008.8	1066.7
53.32	11.06	5.43	1008.7	1066.8
53.33	11.05	5.42	1008.7	1066.5
53.34	11.05	5.43	1008.6	1066.4
53.35	11.05	5.43	1008.8	1066.6
53.36	11.05	5.42	1008.6	1067.0
53.37	11.06	5.43	1008.7	1066.7
53.38	11.06	5.43	1008.6	1066.8
53.39	11.05	5.42	1008.6	1067.0
53.4	11.06	5.43	1008.9	1067.0
53.41	11.05	5.42	1008.6	1066.4
53.42	11.07	5.43	1008.3	1066.0
53.43	11.05	5.42	1008.5	1066.5
53.44	11.06	5.43	1008.5	1066.6
53.45	11.06	5.43	1008.6	1066.2
53.46	11.06	5.43	1008.5	1066.2
53.47	11.06	5.42	1008.6	1066.6
53.48	11.07	5.43	1008.8	1066.6
53.49	11.06	5.43	1008.8	1066.4
53.5	11.07	5.43	1008.7	1065.8
53.51	11.06	5.43	1008.8	1067.0
53.52	11.06	5.42	1008.6	1066.2
53.53	11.06	5.43	1008.6	1066.4
53.54	11.06	5.42	1008.6	1066.2
53.55	11.07	5.43	1008.6	1066.5
53.56	11.06	5.42	1008.5	1066.2
53.57	11.06	5.42	1008.7	1066.4
53.58	11.06	5.42	1008.9	1066.4
53.59	11.05	5.42	1008.7	1066.4
53.6	11.06	5.42	1008.6	1066.6
53.61	11.06	5.42	1008.7	1066.3
53.62	11.06	5.42	1008.6	1066.3
53.63	11.05	5.42	1008.7	1066.5
53.64	11.06	5.43	1008.4	1066.3
53.65	11.06	5.42	1008.7	1066.2
53.66	11.06	5.42	1008.4	1065.7
53.67	11.05	5.42	1008.5	1066.2
53.68	11.06	5.43	1008.4	1066.4
53.69	11.06	5.42	1008.6	1065.8
53.7	11.07	5.43	1008.5	1066.0
53.71	11.06	5.42	1008.5	1066.4
53.72	11.05	5.42	1008.6	1066.2
53.73	11.06	5.43	1008.3	1066.2
53.74	11.05	5.43	1008.6	1065.8
53.75	11.06	5.42	1008.4	1066.4
53.76	11.06	5.42	1008.5	1066.1
53.77	11.05	5.42	1008.6	1065.4
53.78	11.06	5.43	1008.7	1066.1
53.79	11.07	5.43	1008.5	1065.8
53.8	11.06	5.43	1008.5	1066.1
53.81	11.06	5.43	1008.5	1065.4
53.82	11.06	5.42	1008.5	1066.3
53.83	11.06	5.42	1008.4	1065.8
53.84	11.06	5.43	1008.2	1066.1
53.85	11.06	5.42	1008.6	1066.2
53.86	11.05	5.42	1008.5	1066.0
53.87	11.07	5.42	1008.5	1066.1
53.88	11.05	5.42	1008.3	1066.3
53.89	11.06	5.42	1008.6	1065.9
53.9	11.05	5.42	1008.6	1065.6
53.91	11.07	5.43	1008.3	1065.7
53.92	11.06	5.42	1008.4	1065.9
53.93	11.07	5.42	1008.2	1065.5
53.94	11.06	5.42	1008.3	1065.6
53.95	11.06	5.42	1008.4	1065.7
53.96	11.06	5.42	1008.3	1066.2
53.97	11.07	5.43	1008.2	1066.0
53.98	11.06	5.42	1008.4	1066.0
53.99	11.06	5.42	1008.3	1065.6
54.0	11.05	5.42	1008.2	1065.8
54.01	11.05	5.42	1008.3	1065.9
54.02	11.06	5.42	1008.3	1066.0
54.03	11.05	5.42	1008.2	1066.0
54.04	11.06	5.42	1008.1	1065.7
54.05	11.06	5.42	1008.2	1065.5
54.06	11.05	5.42	1008.0	1065.7
54.07	11.06	5.42	1008.2	1065.3
54.08	11.06	5.42	1008.1	1065.6
54.09	11.06	5.43	1008.2	1065.2
54.1	11.06	5.42	1008.2	1065.6
54.11	11.06	5.42	1008.1	1065.3
54.12	11.07	5.42	1008.4	1065.6
54.13	11.05	5.42	1008.2	1065.0
54.14	11.06	5.42	1008.3	1065.6
54.15	11.06	5.42	1008.2	1065.5
54.16	11.06	5.42	1008.4	1065.4
54.17	11.06	5.42	1008.2	1065.3
54.18	11.06	5.42	1008.4	1065.9
54.19	11.06	5.42	1008.4	1065.5
54.2	11.07	5.43	1008.2	1065.5
54.21	11.06	5.43	1008.2	1065.6
54.22	11.07	5.42	1008.5	1066.1
54.23	11.05	5.42	1008.1	1065.6
54.24	11.05	5.42	1008.2	1065.4
54.25	11.05	5.42	1008.2	1064.8
54.26	11.07	5.42	1008.2	1065.1
54.27	11.05	5.42	1008.1	1065.3
54.28	11.06	5.42	1008.1	1065.2
54.29	11.06	5.42	1008.1	1064.9
54.3	11.06	5.42	1008.1	1065.4
54.31	11.07	5.42	1008.1	1064.9
54.32	11.07	5.42	1007.9	1065.4
54.33	11.06	5.42	1008.0	1065.0
54.34	11.05	5.42	1007.8	1065.0
54.35	11.05	5.42	1008.2	1065.1
54.36	11.06	5.42	1007.9	1065.4
54.37	11.06	5.42	1007.9	1064.4
54.38	11.06	5.42	1007.6	1064.9
54.39	11.06	5.42	1007.9	1065.0
54.4	11.05	5.42	1008.0	1064.7
54.41	11.05	5.42	1007.9	1064.5
54.42	11.05	5.42	1007.8	1064.9
54.43	11.06	5.42	1007.8	1065.2
54.44	11.06	5.42	1007.7	1064.9
54.45	11.06	5.42	1007.7	1064.4
54.46	11.06	5.42	1007.6	1065.1
54.47	11.06	5.42	1007.5	1064.9
54.48	11.06	5.42	1007.7	1065.0
54.49	11.06	5.42	1007.8	1064.6
54.5	11.06	5.42	1007.7	1064.9
54.51	11.06	5.42	1007.6	1064.6
54.52	11.06	5.42	1007.6	1064.8
54.53	11.06	5.42	1007.6	1064.4
54.54	11.05	5.42	1007.8	1064.8
54.55	11.07	5.42	1007.8	1064.9
54.56	11.06	5.42	1007.7	1065.0
54.57	11.06	5.42	1007.8	1064.3
54.58	11.06	5.42	1007.7	1064.7
54.59	11.06	5.42	1007.7	1064.6
54.6	11.06	5.42	1007.7	1064.6
54.61	11.07	5.42	1007.7	1064.7
54.62	11.06	5.42	1007.7	1064.4
54.63	11.06	5.42	1007.7	1064.3
54.64	11.06	5.42	1007.5	1064.6
54.65	11.06	5.42	1007.8	1064.4
54.66	11.07	5.42	1007.7	1064.6
54.67	11.06	5.42	1007.8	1064.2
54.68	11.07	5.42	1007.7	1065.0
54.69	11.06	5.42	1007.6	1064.3
54.7	11.07	5.42	1007.8	1064.7
54.71	11.07	5.42	1007.8	1064.7
54.72	11.07	5.42	1007.5	1064.1
54.73	11.05	5.42	1007.7	1064.1
54.74	11.07	5.42	1007.7	1064.8
54.75	11.06	5.42	1007.6	1064.6
54.76	11.05	5.42	1007.8	1064.4
54.77	11.07	5.42	1007.8	1064.4
54.78	11.06	5.42	1007.8	1064.3
54.79	11.06	5.42	1007.6	1064.0
54.8	11.06	5.42	1007.8	1064.5
54.81	11.05	5.42	1007.7	1064.3
54.82	11.07	5.42	1007.7	1064.3
54.83	11.06	5.42	1007.7	1064.4
54.84	11.06	5.42	1007.7	1063.9
54.85	11.07	5.42	1007.4	1063.9
54.86	11.05	5.42	1007.4	1064.0
54.87	11.05	5.42	1007.5	1064.0
54.88	11.05	5.42	1007.4	1063.9
54.89	11.05	5.42	1007.7	1063.8
54.9	11.07	5.42	1007.5	1064.1
54.91	11.06	5.42	1007.5	1064.3
54.92	11.07	5.42	1007.5	1064.1
54.93	11.05	5.42	1007.6	1064.2
54.94	11.05	5.41	1007.4	1064.2
54.95	11.05	5.42	1007.8	1063.9
54.96	11.06	5.42	1007.4	1064.3
54.97	11.06	5.42	1007.5	1064.1
54.98	11.06	5.42	1007.8	1063.4
54.99	11.05	5.42	1007.4	1063.4
55.0	11.07	5.42	1007.4	1063.6
55.01	11.06	5.42	1007.6	1063.7
55.02	11.06	5.42	1007.3	1063.6
55.03	11.06	5.42	1007.5	1063.6
55.04	11.06	5.42	1007.4	1063.8
55.05	11.07	5.42	1007.4	1064.0
55.06	11.06	5.42	1007.4	1064.2
55.07	11.07	5.42	1007.2	1063.1
55.08	11.06	5.42	1007.2	1063.9
55.09	11.06	5.42	1007.5	1063.8
55.1	11.06	5.42	1007.5	1063.6
55.11	11.06	5.42	1007.3	1063.3
55.12	11.05	5.42	1007.3	1063.5
55.13	11.06	5.42	1007.4	1063.6
55.14	11.06	5.42	1007.4	1063.7
55.15	11.06	5.42	1007.2	1063.7
55.16	11.06	5.42	1007.3	1064.0
55.17	11.06	5.42	1007.3	1064.0
55.18	11.06	5.42	1007.5	1064.1
55.19	11.07	5.42	1007.4	1063.7
55.2	11.06	5.42	1007.4	1063.5
55.21	11.07	5.42	1007.4	1063.7
55.22	11.06	5.42	1007.0	1063.6
55.23	11.06	5.42	1007.3	1063.5
55.24	11.05	5.42	1007.1	1063.4
55.25	11.06	5.42	1007.3	1063.8
55.26	11.06	5.42	1007.1	1063.4
55.27	11.06	5.42	1007.1	1063.2
55.28	11.07	5.42	1007.2	1063.4
55.29	11.06	5.42	1007.2	1063.5
55.3	11.06	5.42	1007.2	1063.7
55.31	11.06	5.42	1007.1	1063.5
55.32	11.06	5.42	1007.1	1063.9
55.33	11.06	5.42	1007.3	1063.2
55.34	11.07	5.42	1007.1	1063.4
55.35	11.06	5.42	1007.1	1063.1
55.36	11.05	5.42	1007.3	1063.3
55.37	11.06	5.42	1006.9	1063.4
55.38	11.07	5.42	1007.1	1062.8
55.39	11.07	5.42	1007.1	1062.9
55.4	11.06	5.42	1007.0	1063.3
55.41	11.06	5.42	1006.9	1063.0
55.42	11.06	5.42	1007.0	1063.5
55.43	11.06	5.42	1007.1	1062.9
55.44	11.06	5.42	1007.0	1063.3
55.45	11.06	5.42	1007.0	1063.0
55.46	11.07	5.42	1007.0	1063.0
55.47	11.06	5.42	1006.9	1063.0
55.48	11.06	5.42	1007.0	1062.8
55.49	11.06	5.42	1006.8	1062.9
55.5	11.06	5.42	1006.8	1062.6
55.51	11.05	5.42	1006.8	1062.2
55.52	11.07	5.42	1007.0	1063.1
55.53	11.05	5.42	1006.8	1062.7
55.54	11.06	5.42	1006.9	1063.2
55.55	11.07	5.42	1006.9	1063.0
55.56	11.06	5.42	1006.9	1063.1
55.57	11.06	5.42	1006.9	1062.5
55.58	11.06	5.42	1007.1	1062.8
55.59	11.05	5.42	1007.0	1062.5
55.6	11.06	5.42	1006.6	1062.7
55.61	11.06	5.42	1006.8	1062.4
55.62	11.06	5.42	1006.8	1062.8
55.63	11.06	5.42	1007.0	1062.8
55.64	11.06	5.42	1006.7	1062.4
55.65	11.06	5.42	1006.9	1062.5
55.66	11.06	5.42	1006.7	1062.6
55.67	11.05	5.42	1006.8	1062.5
55.68	11.06	5.42	1006.8	1062.6
55.69	11.05	5.41	1006.8	1062.6
55.7	11.07	5.42	1006.8	1061.9
55.71	11.05	5.42	1006.8	1062.3
55.72	11.07	5.42	1006.6	1062.3
55.73	11.06	5.42	1007.0	1062.4
55.74	11.05	5.41	1006.8	1062.1
55.75	11.06	5.42	1006.9	1062.4
55.76	11.06	5.41	1006.9	1062.6
55.77	11.06	5.41	1006.8	1062.5
55.78	11.06	5.42	1006.8	1062.2
55.79	11.07	5.42	1006.9	1062.1
55.8	11.06	5.41	1006.6	1062.3
55.81	11.07	5.42	1006.8	1062.4
55.82	11.06	5.42	1006.9	1062.4
55.83	11.06	5.42	1006.8	1062.1
55.84	11.05	5.42	1006.6	1062.0
55.85	11.06	5.41	1006.8	1062.1
55.86	11.06	5.42	1006.6	1061.3
55.87	11.07	5.42	1006.8	1062.0
55.88	11.05	5.42	1006.7	1062.1
55.89	11.06	5.41	1006.6	1062.3
55.9	11.05	5.41	1006.6	1062.1
55.91	11.07	5.42	1006.4	1061.6
55.92	11.05	5.42	1006.6	1061.8
55.93	11.07	5.42	1006.9	1061.7
55.94	11.05	5.42	1006.6	1061.7
55.95	11.06	5.41	1006.7	1061.6
55.96	11.06	5.42	1006.4	1061.9
55.97	11.06	5.42	1006.6	1061.6
55.98	11.05	5.41	1006.8	1061.6
55.99	11.06	5.42	1006.5	1061.4
56.0	11.06	5.41	1006.8	1061.5
56.01	11.06	5.42	1006.6	1061.6
56.02	11.06	5.41	1006.5	1061.6
56.03	11.06	5.42	1006.5	1061.7
56.04	11.06	5.42	1006.7	1062.1
56.05	11.07	5.42	1006.6	1061.8
56.06	11.06	5.42	1006.6	1061.7
56.07	11.07	5.42	1006.9	1062.0
56.08	11.05	5.41	1006.7	1061.8
56.09	11.07	5.42	1006.6	1061.8
56.1	11.07	5.42	1006.7	1061.8
56.11	11.07	5.42	1006.7	1061.7
56.12	11.06	5.42	1006.4	1061.6
56.13	11.06	5.41	1006.6	1061.9
56.14	11.07	5.42	1006.7	1061.6
56.15	11.05	5.41	1006.4	1061.5
56.16	11.05	5.41	1006.6	1061.8
56.17	11.05	5.42	1006.6	1061.7
56.18	11.06	5.41	1006.6	1061.6
56.19	11.05	5.42	1006.5	1061.6
56.2	11.06	5.41	1006.8	1061.6
56.21	11.05	5.41	1006.4	1061.2
56.22	11.06	5.42	1006.4	1061.4
56.23	11.06	5.41	1006.6	1061.7
56.24	11.07	5.42	1006.5	1061.7
56.25	11.07	5.42	1006.5	1061.5
56.26	11.06	5.42	1006.2	1061.8
56.27	11.06	5.42	1006.4	1062.0
56.28	11.07	5.42	1006.5	1061.4
56.29	11.06	5.41	1006.7	1060.8
56.3	11.06	5.42	1006.5	1061.0
56.31	11.06	5.42	1006.3	1061.0
56.32	11.05	5.41	1006.6	1060.8
56.33	11.06	5.41	1006.4	1061.0
56.34	11.06	5.41	1006.5	1061.4
56.35	11.06	5.41	1006.6	1061.3
56.36	11.06	5.41	1006.5	1061.4
56.37	11.06	5.42	1006.3	1061.1
56.38	11.06	5.42	1006.4	1061.2
56.39	11.06	5.41	1006.8	1060.8
56.4	11.06	5.41	1006.5	1060.8
56.41	11.05	5.41	1006.6	1060.9
56.42	11.06	5.42	1006.6	1060.8
56.43	11.05	5.41	1006.5	1061.0
56.44	11.06	5.41	1006.4	1061.1
56.45	11.07	5.42	1006.5	1061.2
56.46	11.06	5.41	1006.3	1061.2
56.47	11.06	5.42	1006.7	1060.8
56.48	11.07	5.42	1006.5	1060.9
56.49	11.07	5.42	1006.8	1060.9
56.5	11.06	5.41	1006.5	1060.8
56.51	11.05	5.41	1006.5	1060.5
56.52	11.07	5.41	1006.4	1060.4
56.53	11.07	5.42	1006.4	1060.6
56.54	11.06	5.41	1006.4	1061.2
56.55	11.06	5.42	1006.0	1061.1
56.56	11.06	5.41	1006.2	1061.0
56.57	11.06	5.41	1006.3	1060.6
56.58	11.06	5.42	1006.0	1061.0
56.59	11.07	5.42	1006.1	1060.6
56.6	11.07	5.42	1006.4	1060.8
56.61	11.06	5.41	1006.4	1060.3
56.62	11.05	5.41	1005.8	1060.8
56.63	11.07	5.42	1006.2	1060.7
56.64	11.05	5.41	1006.1	1061.1
56.65	11.06	5.41	1006.0	1060.9
56.66	11.06	5.41	1006.0	1061.2
56.67	11.04	5.41	1006.2	1060.7
56.68	11.06	5.42	1006.0	1060.7
56.69	11.06	5.41	1006.0	1060.8
56.7	11.06	5.42	1006.1	1060.7
56.71	11.06	5.42	1006.1	1060.6
56.72	11.05	5.41	1006.0	1061.1
56.73	11.07	5.41	1006.1	1060.3
56.74	11.05	5.41	1006.0	1060.3
56.75	11.06	5.42	1006.1	1060.5
56.76	11.06	5.42	1006.0	1060.8
56.77	11.06	5.41	1006.0	1060.3
56.78	11.06	5.41	1005.9	1060.5
56.79	11.06	5.41	1005.9	1060.5
56.8	11.07	5.41	1005.9	1060.4
56.81	11.07	5.42	1005.8	1060.1
56.82	11.06	5.41	1006.0	1060.4
56.83	11.06	5.41	1005.8	1060.4
56.84	11.07	5.41	1006.0	1060.5
56.85	11.06	5.41	1006.1	1060.4
56.86	11.05	5.41	1006.0	1060.4
56.87	11.05	5.41	1005.9	1060.4
56.88	11.06	5.41	1005.9	1060.1
56.89	11.05	5.41	1005.9	1059.8
56.9	11.05	5.41	1005.9	1060.3
56.91	11.06	5.41	1005.9	1060.3
56.92	11.07	5.41	1005.8	1060.1
56.93	11.05	5.41	1005.9	1059.9
56.94	11.06	5.41	1005.9	1060.0
56.95	11.04	5.41	1005.9	1060.4
56.96	11.06	5.41	1006.1	1060.4
56.97	11.06	5.41	1005.9	1059.7
56.98	11.05	5.41	1005.7	1060.2
56.99	11.05	5.41	1006.2	1060.2
57.0	11.06	5.41	1006.0	1060.4
57.01	11.06	5.41	1006.0	1059.7
57.02	11.07	5.41	1005.8	1060.2
57.03	11.05	5.41	1006.0	1060.2
57.04	11.06	5.41	1005.8	1059.6
57.05	11.05	5.41	1005.6	1060.3
57.06	11.06	5.41	1005.7	1060.0
57.07	11.06	5.41	1005.9	1060.1
57.08	11.06	5.41	1005.8	1060.5
57.09	11.06	5.41	1005.6	1060.2
57.1	11.06	5.41	1005.8	1059.9
57.11	11.05	5.41	1005.6	1060.2
57.12	11.06	5.41	1005.5	1060.0
57.13	11.05	5.41	1005.7	1060.0
57.14	11.05	5.41	1005.6	1060.0
57.15	11.07	5.41	1005.6	1059.9
57.16	11.06	5.41	1005.8	1060.0
57.17	11.05	5.41	1005.6	1060.0
57.18	11.05	5.41	1005.7	1060.0
57.19	11.07	5.42	1005.6	1059.6
57.2	11.05	5.41	1005.6	1059.0
57.21	11.05	5.41	1005.8	1059.8
57.22	11.06	5.41	1005.6	1059.9
57.23	11.06	5.41	1005.8	1059.7
57.24	11.05	5.41	1005.7	1059.7
57.25	11.05	5.41	1005.7	1060.2
57.26	11.06	5.41	1005.8	1059.8
57.27	11.07	5.41	1005.6	1059.8
57.28	11.07	5.41	1005.8	1059.2
57.29	11.06	5.41	1005.6	1059.9
57.3	11.05	5.41	1005.8	1059.6
57.31	11.06	5.41	1005.6	1059.6
57.32	11.05	5.41	1005.8	1059.4
57.33	11.06	5.41	1005.7	1060.0
57.34	11.06	5.41	1005.7	1059.4
57.35	11.06	5.41	1005.6	1059.2
57.36	11.06	5.41	1005.5	1059.6
57.37	11.06	5.41	1005.6	1059.8
57.38	11.05	5.41	1005.6	1059.7
57.39	11.05	5.41	1005.5	1059.4
57.4	11.06	5.41	1005.8	1058.9
57.41	11.07	5.41	1005.6	1059.5
57.42	11.05	5.41	1005.6	1059.4
57.43	11.05	5.41	1005.6	1059.1
57.44	11.05	5.41	1005.5	1058.8
57.45	11.06	5.41	1005.5	1059.3
57.46	11.05	5.41	1005.5	1058.9
57.47	11.06	5.41	1005.5	1059.1
57.48	11.05	5.41	1005.5	1059.4
57.49	11.07	5.41	1005.5	1059.6
57.5	11.06	5.41	1005.6	1059.2
57.51	11.06	5.41	1005.8	1058.7
57.52	11.05	5.41	1005.3	1059.2
57.53	11.06	5.41	1005.6	1059.1
57.54	11.07	5.41	1005.4	1059.3
57.55	11.06	5.41	1005.4	1059.3
57.56	11.05	5.41	1005.3	1059.2
57.57	11.07	5.41	1005.5	1059.0
57.58	11.06	5.41	1005.5	1059.4
57.59	11.06	5.41	1005.5	1059.2
57.6	11.06	5.41	1005.7	1058.8
57.61	11.05	5.41	1005.5	1059.3
57.62	11.06	5.41	1005.5	1059.1
57.63	11.06	5.41	1005.4	1058.6
57.64	11.07	5.42	1005.4	1059.0
57.65	11.06	5.41	1005.5	1059.0
57.66	11.06	5.41	1005.4	1059.1
57.67	11.06	5.41	1005.5	1058.2
57.68	11.05	5.41	1005.3	1058.8
57.69	11.05	5.41	1005.4	1058.9
57.7	11.06	5.41	1005.4	1058.4
57.71	11.05	5.41	1005.2	1059.0
57.72	11.07	5.41	1005.4	1058.6
57.73	11.05	5.41	1005.2	1058.9
57.74	11.06	5.41	1005.4	1058.8
57.75	11.05	5.41	1005.5	1059.0
57.76	11.06	5.41	1005.4	1059.2
57.77	11.06	5.41	1005.4	1059.1
57.78	11.06	5.41	1005.4	1058.7
57.79	11.06	5.41	1005.3	1058.4
57.8	11.06	5.41	1005.5	1059.0
57.81	11.04	5.41	1005.4	1058.9
57.82	11.06	5.41	1005.3	1058.8
57.83	11.06	5.41	1005.3	1058.4
57.84	11.05	5.41	1005.1	1058.8
57.85	11.05	5.41	1005.6	1059.0
57.86	11.05	5.41	1005.2	1058.7
57.87	11.06	5.41	1005.3	1058.9
57.88	11.06	5.41	1005.4	1058.4
57.89	11.05	5.41	1005.4	1058.6
57.9	11.06	5.41	1005.2	1058.9
57.91	11.05	5.41	1005.3	1059.2
57.92	11.06	5.41	1005.1	1058.9
57.93	11.06	5.41	1005.4	1059.0
57.94	11.05	5.41	1005.1	1059.2
57.95	11.06	5.41	1005.2	1058.9
57.96	11.06	5.41	1005.3	1059.2
57.97	11.06	5.41	1005.3	1059.2
57.98	11.06	5.41	1005.1	1059.0
57.99	11.06	5.41	1005.2	1058.4
58.0	11.06	5.41	1004.9	1058.6
58.01	11.07	5.41	1005.1	1059.1
58.02	11.06	5.41	1005.1	1059.0
58.03	11.06	5.41	1005.3	1058.9
58.04	11.06	5.41	1005.1	1059.2
58.05	11.06	5.41	1005.3	1059.2
58.06	11.07	5.41	1005.0	1058.7
58.07	11.06	5.41	1005.2	1058.6
58.08	11.06	5.41	1005.3	1058.8
58.09	11.06	5.41	1005.0	1058.9
58.1	11.05	5.41	1005.3	1058.8
58.11	11.07	5.41	1005.2	1058.5
58.12	11.05	5.41	1005.1	1058.6
58.13	11.07	5.41	1005.0	1059.0
58.14	11.06	5.41	1005.0	1058.8
58.15	11.06	5.41	1005.1	1058.7
58.16	11.06	5.41	1005.2	1058.4
58.17	11.06	5.41	1005.1	1058.4
58.18	11.05	5.41	1005.2	1058.2
58.19	11.06	5.41	1005.2	1058.0
58.2	11.05	5.41	1005.4	1058.5
58.21	11.06	5.41	1005.1	1058.2
58.22	11.06	5.41	1005.1	1058.3
58.23	11.05	5.4	1005.2	1058.5
58.24	11.06	5.41	1004.9	1058.7
58.25	11.07	5.41	1005.3	1058.6
58.26	11.06	5.41	1004.8	1058.7
58.27	11.06	5.41	1005.2	1059.0
58.28	11.06	5.41	1004.9	1058.8
58.29	11.05	5.41	1005.0	1058.3
58.3	11.07	5.41	1004.9	1058.4
58.31	11.06	5.41	1005.0	1058.3
58.32	11.06	5.41	1004.8	1058.7
58.33	11.06	5.41	1004.9	1058.2
58.34	11.07	5.41	1004.7	1058.2
58.35	11.06	5.41	1004.7	1058.0
58.36	11.05	5.4	1004.6	1058.3
58.37	11.06	5.41	1004.9	1058.1
58.38	11.06	5.41	1004.8	1058.2
58.39	11.06	5.41	1004.7	1057.9
58.4	11.07	5.41	1004.9	1058.1
58.41	11.05	5.41	1004.6	1057.8
58.42	11.07	5.41	1004.6	1057.8
58.43	11.06	5.41	1004.9	1057.9
58.44	11.06	5.41	1004.8	1058.1
58.45	11.06	5.41	1004.8	1058.3
58.46	11.07	5.41	1004.6	1058.2
58.47	11.06	5.41	1004.5	1058.2
58.48	11.06	5.41	1004.4	1057.6
58.49	11.06	5.41	1004.8	1058.1
58.5	11.07	5.41	1004.5	1057.8
58.51	11.05	5.41	1004.6	1057.9
58.52	11.06	5.41	1004.5	1058.2
58.53	11.05	5.41	1004.4	1058.6
58.54	11.06	5.41	1004.4	1058.2
58.55	11.06	5.41	1004.4	1058.3
58.56	11.06	5.41	1004.2	1058.0
58.57	11.06	5.41	1004.3	1057.7
58.58	11.05	5.41	1004.0	1057.6
58.59	11.05	5.4	1004.4	1058.0
58.6	11.06	5.41	1004.2	1058.2
58.61	11.06	5.41	1004.5	1057.9
58.62	11.07	5.41	1004.5	1058.4
58.63	11.05	5.41	1004.5	1058.2
58.64	11.05	5.41	1004.4	1058.0
58.65	11.07	5.41	1004.4	1057.7
58.66	11.05	5.41	1004.6	1057.9
58.67	11.06	5.41	1004.5	1057.5
58.68	11.06	5.41	1004.5	1058.1
58.69	11.06	5.41	1004.8	1058.2
58.7	11.06	5.41	1004.4	1057.5
58.71	11.06	5.41	1004.7	1057.9
58.72	11.06	5.41	1004.5	1057.8
58.73	11.06	5.41	1004.5	1057.8
58.74	11.06	5.41	1004.5	1057.3
58.75	11.07	5.41	1004.8	1057.6
58.76	11.06	5.41	1004.8	1057.6
58.77	11.07	5.41	1004.7	1057.3
58.78	11.06	5.41	1004.5	1057.5
58.79	11.06	5.41	1004.6	1057.8
58.8	11.06	5.41	1004.6	1057.4
58.81	11.07	5.41	1004.5	1057.6
58.82	11.05	5.41	1004.5	1057.5
58.83	11.07	5.41	1004.6	1057.6
58.84	11.05	5.41	1004.5	1057.6
58.85	11.06	5.41	1004.8	1057.3
58.86	11.06	5.41	1004.6	1057.2
58.87	11.06	5.4	1004.4	1057.6
58.88	11.06	5.41	1004.9	1057.4
58.89	11.06	5.41	1004.5	1057.3
58.9	11.05	5.41	1004.6	1057.3
58.91	11.06	5.4	1004.4	1057.5
58.92	11.05	5.4	1004.5	1057.5
58.93	11.06	5.41	1004.7	1057.1
58.94	11.06	5.41	1004.7	1057.2
58.95	11.06	5.41	1004.4	1057.3
58.96	11.06	5.41	1004.5	1057.4
58.97	11.06	5.41	1004.5	1057.2
58.98	11.05	5.41	1004.5	1056.9
58.99	11.05	5.41	1004.4	1056.8
59.0	11.07	5.41	1004.4	1057.4
59.01	11.07	5.41	1004.6	1057.3
59.02	11.06	5.41	1004.5	1056.8
59.03	11.06	5.41	1004.5	1057.4
59.04	11.06	5.41	1004.3	1057.3
59.05	11.05	5.41	1004.6	1057.3
59.06	11.06	5.4	1004.4	1057.0
59.07	11.06	5.41	1004.5	1057.3
59.08	11.07	5.41	1004.3	1056.9
59.09	11.07	5.41	1004.5	1056.7
59.1	11.07	5.41	1004.0	1056.8
59.11	11.07	5.41	1004.3	1057.3
59.12	11.07	5.41	1004.1	1057.2
59.13	11.06	5.41	1004.4	1056.7
59.14	11.06	5.41	1004.3	1056.6
59.15	11.05	5.41	1004.2	1057.0
59.16	11.06	5.4	1004.7	1056.9
59.17	11.06	5.41	1004.6	1056.8
59.18	11.07	5.41	1004.6	1056.8
59.19	11.05	5.41	1004.8	1057.1
59.2	11.07	5.41	1004.4	1056.8
59.21	11.06	5.41	1004.6	1056.5
59.22	11.06	5.4	1004.6	1056.8
59.23	11.05	5.4	1004.5	1056.6
59.24	11.06	5.4	1004.6	1056.9
59.25	11.06	5.41	1004.6	1056.4
59.26	11.05	5.41	1004.4	1056.9
59.27	11.06	5.41	1004.6	1056.8
59.28	11.06	5.4	1004.4	1056.8
59.29	11.06	5.4	1004.2	1056.4
59.3	11.06	5.4	1004.0	1056.8
59.31	11.07	5.41	1004.5	1056.6
59.32	11.06	5.41	1004.3	1056.4
59.33	11.06	5.41	1004.2	1056.4
59.34	11.07	5.41	1004.5	1057.2
59.35	11.07	5.41	1004.6	1056.4
59.36	11.05	5.4	1004.2	1056.6
59.37	11.06	5.4	1004.5	1056.4
59.38	11.04	5.4	1004.3	1056.3
59.39	11.06	5.41	1004.2	1056.5
59.4	11.07	5.41	1004.3	1056.6
59.41	11.06	5.4	1004.3	1056.7
59.42	11.06	5.41	1004.0	1056.7
59.43	11.07	5.41	1004.2	1056.4
59.44	11.06	5.4	1004.3	1056.5
59.45	11.06	5.41	1004.2	1056.3
59.46	11.06	5.41	1004.2	1056.9
59.47	11.06	5.4	1004.0	1056.6
59.48	11.06	5.41	1003.8	1056.4
59.49	11.06	5.41	1004.0	1055.8
59.5	11.06	5.41	1004.0	1056.3
59.51	11.07	5.41	1004.0	1056.7
59.52	11.06	5.4	1003.8	1056.4
59.53	11.06	5.41	1003.9	1056.1
59.54	11.05	5.4	1004.0	1056.4
59.55	11.07	5.41	1003.8	1056.2
59.56	11.05	5.41	1004.0	1056.2
59.57	11.07	5.41	1004.2	1056.0
59.58	11.05	5.4	1003.9	1056.1
59.59	11.07	5.41	1004.0	1056.2
59.6	11.05	5.4	1003.8	1056.2
59.61	11.06	5.41	1004.2	1055.9
59.62	11.05	5.4	1004.1	1056.6
59.63	11.07	5.41	1004.2	1056.1
59.64	11.06	5.4	1003.9	1056.5
59.65	11.06	5.4	1004.0	1055.9
59.66	11.06	5.4	1003.8	1055.9
59.67	11.05	5.41	1003.9	1055.9
59.68	11.05	5.4	1003.8	1055.1
59.69	11.07	5.41	1004.1	1055.8
59.7	11.05	5.4	1004.0	1055.9
59.71	11.06	5.41	1004.1	1055.9
59.72	11.06	5.4	1003.8	1055.9
59.73	11.06	5.41	1004.0	1056.0
59.74	11.06	5.4	1003.9	1055.9
59.75	11.05	5.4	1004.1	1055.9
59.76	11.06	5.41	1004.0	1055.5
59.77	11.05	5.4	1003.7	1055.8
59.78	11.07	5.4	1003.9	1055.9
59.79	11.05	5.4	1003.7	1056.2
59.8	11.06	5.4	1004.0	1055.6
59.81	11.06	5.4	1004.0	1056.4
59.82	11.07	5.41	1004.0	1056.3
59.83	11.06	5.4	1004.0	1056.2
59.84	11.07	5.41	1004.1	1055.6
59.85	11.05	5.4	1004.0	1055.8
59.86	11.06	5.41	1003.9	1055.6
59.87	11.07	5.41	1003.9	1055.6
59.88	11.07	5.4	1004.0	1055.5
59.89	11.06	5.4	1003.9	1055.8
59.9	11.06	5.4	1003.9	1055.6
59.91	11.05	5.4	1003.9	1055.2
59.92	11.06	5.4	1004.1	1055.4
59.93	11.05	5.4	1003.9	1055.7
59.94	11.06	5.41	1003.8	1055.5
59.95	11.06	5.41	1004.0	1055.4
59.96	11.05	5.4	1003.8	1055.4
59.97	11.06	5.4	1003.9	1055.4
59.98	11.06	5.4	1004.0	1055.6
59.98	11.06	5.4	1004.0	1055.6
59.99	11.06	5.4	1004.0	1055.6
60.0	11.06	5.4	1004.0	1055.6
60.01	11.06	5.4	1004.0	1055.6
60.02	11.06	5.4	1004.0	1055.6
60.03	11.06	5.4	1004.0	1055.6
60.04	11.06	5.4	1004.0	1055.6
60.05	11.06	5.4	1004.0	1055.6
60.06	11.06	5.4	1004.0	1055.6
60.07	11.06	5.4	1004.0	1055.6
60.08	11.06	5.4	1004.0	1055.6
60.09	11.06	5.4	1004.0	1055.6
60.1	11.06	5.4	1004.0	1055.6
60.11	11.06	5.4	1004.0	1055.6
60.12	11.06	5.4	1004.0	1055.6
60.13	11.06	5.4	1004.0	1055.6
60.14	11.06	5.4	1004.0	1055.6
60.15	11.06	5.4	1004.0	1055.6
60.16	11.06	5.4	1004.0	1055.6
60.17	11.06	5.4	1004.0	1055.6
60.18	11.06	5.4	1004.0	1055.6
60.19	11.06	5.4	1004.0	1055.6
60.2	11.06	5.4	1004.0	1055.6
60.21	11.06	5.4	1004.0	1055.6
60.22	11.06	5.4	1004.0	1055.6
60.23	11.06	5.4	1004.0	1055.6
60.24	11.06	5.4	1004.0	1055.6
60.25	11.06	5.4	1004.0	1055.6
60.26	11.06	5.4	1004.0	1055.6
60.27	11.06	5.4	1004.0	1055.6
60.28	11.06	5.4	1004.0	1055.6
60.29	11.06	5.4	1004.0	1055.6
60.3	11.06	5.4	1004.0	1055.6
60.31	11.06	5.4	1004.0	1055.6
60.32	11.06	5.4	1004.0	1055.6
60.33	11.06	5.4	1004.0	1055.6
60.34	11.06	5.4	1004.0	1055.6
60.35	11.06	5.4	1004.0	1055.6
60.36	11.06	5.4	1004.0	1055.6
60.37	11.06	5.4	1004.0	1055.6
60.38	11.06	5.4	1004.0	1055.6
60.39	11.06	5.4	1004.0	1055.6
60.4	11.06	5.4	1004.0	1055.6
60.41	11.06	5.4	1004.0	1055.6
60.42	11.06	5.4	1004.0	1055.6
60.43	11.06	5.4	1004.0	1055.6
60.44	11.06	5.4	1004.0	1055.6
60.45	11.06	5.4	1004.0	1055.6
60.46	11.06	5.4	1004.0	1055.6
60.47	11.06	5.4	1004.0	1055.6
60.48	11.06	5.4	1004.0	1055.6
60.49	11.06	5.4	1004.0	1055.6
60.5	11.06	5.4	1004.0	1055.6
60.51	11.06	5.4	1004.0	1055.6
60.52	11.06	5.4	1004.0	1055.6
60.53	11.06	5.4	1004.0	1055.6
60.54	11.06	5.4	1004.0	1055.6
60.55	11.06	5.4	1004.0	1055.6
60.56	11.06	5.4	1004.0	1055.6
60.57	11.06	5.4	1004.0	1055.6
60.58	11.06	5.4	1004.0	1055.6
60.59	11.06	5.4	1004.0	1055.6
60.6	11.06	5.4	1004.0	1055.6
60.61	11.06	5.4	1004.0	1055.6
60.62	11.06	5.4	1004.0	1055.6
60.63	11.06	5.4	1004.0	1055.6
60.64	11.06	5.4	1004.0	1055.6
60.65	11.06	5.4	1004.0	1055.6
60.66	11.06	5.4	1004.0	1055.6
60.67	11.06	5.4	1004.0	1055.6
60.68	11.06	5.4	1004.0	1055.6
60.69	11.06	5.4	1004.0	1055.6
60.7	11.06	5.4	1004.0	1055.6
60.71	11.06	5.4	1004.0	1055.6
60.72	11.06	5.4	1004.0	1055.6
60.73	11.06	5.4	1004.0	1055.6
60.74	11.06	5.4	1004.0	1055.6
60.75	11.06	5.4	1004.0	1055.6
60.76	11.06	5.4	1004.0	1055.6
60.77	11.06	5.4	1004.0	1055.6
60.78	11.06	5.4	1004.0	1055.6
60.79	11.06	5.4	1004.0	1055.6
60.8	11.06	5.4	1004.0	1055.6
60.81	11.06	5.4	1004.0	1055.6
60.82	11.06	5.4	1004.0	1055.6
60.83	11.06	5.4	1004.0	1055.6
60.84	11.06	5.4	1004.0	1055.6
60.85	11.06	5.4	1004.0	1055.6
60.86	11.06	5.4	1004.0	1055.6
60.87	11.06	5.4	1004.0	1055.6
60.88	11.06	5.4	1004.0	1055.6
60.89	11.06	5.4	1004.0	1055.6
60.9	11.06	5.4	1004.0	1055.6
60.91	11.06	5.4	1004.0	1055.6
60.92	11.06	5.4	1004.0	1055.6
60.93	11.06	5.4	1004.0	1055.6
60.94	11.06	5.4	1004.0	1055.6
60.95	11.06	5.4	1004.0	1055.6
60.96	11.06	5.4	1004.0	1055.6
60.97	11.06	5.4	1004.0	1055.6
60.98	11.06	5.4	1004.0	1055.6
60.99	11.06	5.4	1004.0	1055.6
61.0	11.06	5.4	1004.0	1055.6