t[s]	U[V]	I[A]	Piro[C]	TC[C]
-0.01	-0.01	-0.01	642.3	695.2
0.0	9.36	15.54	695.2	642.3
0.01	10.59	17.53	695.4	642.5
0.02	10.86	17.97	695.5	642.3
0.03	10.94	18.08	695.5	642.4
0.04	10.98	18.11	695.2	642.2
0.05	11.0	18.1	695.3	642.4
0.06	11.01	18.09	695.4	642.2
0.07	11.03	18.08	695.4	642.4
0.08	11.04	18.07	695.3	642.7
0.09	11.05	18.07	695.2	642.2
0.1	11.05	18.04	695.3	642.3
0.11	11.05	18.02	695.3	642.3
0.12	11.05	17.99	695.2	642.4
0.13	11.05	17.97	695.5	642.4
0.14	11.06	17.96	695.2	642.2
0.15	11.06	17.93	695.2	642.4
0.16	11.05	17.91	695.4	642.1
0.17	11.06	17.89	695.3	642.2
0.18	11.06	17.86	695.2	642.2
0.19	11.06	17.85	695.3	642.2
0.2	11.06	17.84	695.3	642.1
0.21	11.07	17.82	695.2	642.4
0.22	11.08	17.82	695.3	642.4
0.23	11.07	17.79	695.3	642.2
0.24	11.07	17.77	695.3	642.3
0.25	11.06	17.75	695.4	642.4
0.26	11.07	17.73	695.5	642.2
0.27	11.06	17.71	695.2	642.4
0.28	11.06	17.69	695.4	642.2
0.29	11.06	17.68	695.3	642.4
0.3	11.06	17.66	695.4	642.5
0.31	11.06	17.65	695.3	642.2
0.32	11.07	17.64	695.3	642.3
0.33	11.06	17.62	695.4	642.4
0.34	11.08	17.61	695.3	642.4
0.35	11.06	17.59	695.2	642.2
0.36	11.06	17.57	695.4	642.3
0.37	11.06	17.56	695.5	642.4
0.38	11.06	17.53	695.4	642.4
0.39	11.05	17.51	695.2	642.2
0.4	11.06	17.49	695.3	642.3
0.41	11.05	17.48	695.4	642.3
0.42	11.06	17.47	695.1	642.3
0.43	11.06	17.46	695.3	642.3
0.44	11.06	17.44	695.2	642.6
0.45	11.07	17.43	695.2	642.4
0.46	11.07	17.4	695.3	642.3
0.47	11.06	17.38	695.2	642.5
0.48	11.07	17.39	695.2	642.3
0.49	11.06	17.35	695.2	642.2
0.5	11.06	17.34	695.3	642.3
0.51	11.06	17.32	695.4	642.2
0.52	11.06	17.32	695.4	642.3
0.53	11.07	17.31	695.2	642.3
0.54	11.06	17.28	695.5	642.3
0.55	11.06	17.26	695.5	642.2
0.56	11.06	17.25	695.4	642.5
0.57	11.06	17.23	695.3	642.4
0.58	11.05	17.21	695.5	642.3
0.59	11.05	17.19	695.4	642.2
0.6	11.06	17.19	695.2	642.3
0.61	11.07	17.18	695.2	642.4
0.62	11.06	17.16	695.1	642.2
0.63	11.07	17.14	695.4	642.4
0.64	11.06	17.12	695.6	642.3
0.65	11.06	17.11	695.3	642.4
0.66	11.06	17.09	695.3	642.2
0.67	11.06	17.08	695.5	642.4
0.68	11.07	17.07	695.4	642.2
0.69	11.07	17.05	695.3	642.4
0.7	11.05	17.02	695.4	642.3
0.71	11.06	17.01	695.3	642.2
0.72	11.06	16.99	695.3	642.3
0.73	11.06	16.97	695.2	642.2
0.74	11.08	16.99	695.4	642.4
0.75	11.07	16.96	695.2	642.1
0.76	11.07	16.94	695.3	642.1
0.77	11.06	16.92	695.3	642.4
0.78	11.07	16.91	695.3	642.3
0.79	11.06	16.89	695.4	642.5
0.8	11.08	16.89	695.3	642.3
0.81	11.06	16.85	695.4	642.5
0.82	11.06	16.84	695.2	642.0
0.83	11.06	16.82	695.4	642.2
0.84	11.08	16.83	695.3	642.5
0.85	11.06	16.81	695.5	642.2
0.86	11.06	16.79	695.2	642.3
0.87	11.06	16.78	695.5	642.3
0.88	11.06	16.76	695.3	642.3
0.89	11.06	16.76	695.4	642.1
0.9	11.07	16.73	695.4	642.5
0.91	11.07	16.72	695.4	642.6
0.92	11.07	16.71	695.3	642.4
0.93	11.05	16.68	695.4	642.5
0.94	11.07	16.68	695.2	642.3
0.95	11.06	16.66	695.3	642.4
0.96	11.06	16.64	695.3	642.2
0.97	11.06	16.63	695.3	642.3
0.98	11.08	16.64	695.3	642.3
0.99	11.06	16.61	695.4	642.3
1.0	11.06	16.59	695.2	642.2
1.01	11.07	16.59	695.3	642.4
1.02	11.06	16.56	695.4	642.3
1.03	11.06	16.54	695.4	642.4
1.04	11.06	16.53	695.2	642.4
1.05	11.07	16.53	695.1	642.1
1.06	11.06	16.51	695.4	642.3
1.07	11.06	16.49	695.3	642.2
1.08	11.06	16.47	695.4	642.3
1.09	11.06	16.46	695.3	642.4
1.1	11.08	16.47	695.2	642.6
1.11	11.06	16.45	695.4	642.2
1.12	11.06	16.41	695.5	642.5
1.13	11.06	16.4	695.5	642.2
1.14	11.05	16.38	695.3	642.4
1.15	11.07	16.39	695.2	642.6
1.16	11.07	16.37	695.3	642.3
1.17	11.08	16.38	695.3	642.5
1.18	11.07	16.36	695.4	642.4
1.19	11.07	16.34	695.2	642.6
1.2	11.07	16.33	695.2	642.1
1.21	11.07	16.3	695.6	642.2
1.22	11.05	16.27	695.4	642.2
1.23	11.07	16.27	695.4	642.3
1.24	11.05	16.25	695.4	642.3
1.25	11.05	16.23	695.3	642.3
1.26	11.05	16.22	695.4	642.1
1.27	11.06	16.21	695.3	642.3
1.28	11.06	16.2	695.4	642.5
1.29	11.06	16.19	695.4	642.2
1.3	11.06	16.17	695.4	642.4
1.31	11.06	16.16	695.3	642.4
1.32	11.05	16.14	695.2	642.2
1.33	11.06	16.13	695.5	642.3
1.34	11.06	16.12	695.4	642.1
1.35	11.07	16.11	695.2	642.4
1.36	11.08	16.12	695.2	642.2
1.37	11.07	16.09	695.1	642.2
1.38	11.06	16.07	695.2	642.1
1.39	11.05	16.05	695.2	642.5
1.4	11.06	16.03	695.4	642.1
1.41	11.07	16.03	695.3	642.3
1.42	11.07	16.04	695.3	642.4
1.43	11.07	16.01	695.5	642.4
1.44	11.06	15.99	695.4	642.2
1.45	11.06	15.97	695.2	642.2
1.46	11.06	15.97	695.4	642.4
1.47	11.06	15.95	695.4	642.5
1.48	11.07	15.95	695.3	642.3
1.49	11.07	15.93	695.3	642.5
1.5	11.05	15.89	695.2	642.1
1.51	11.06	15.9	695.2	642.4
1.52	11.06	15.88	695.4	642.4
1.53	11.05	15.86	695.4	642.3
1.54	11.05	15.85	695.3	642.3
1.55	11.06	15.84	695.3	642.3
1.56	11.06	15.82	695.4	642.4
1.57	11.06	15.81	695.5	642.2
1.58	11.06	15.8	695.3	642.3
1.59	11.06	15.79	695.2	642.3
1.6	11.07	15.78	695.2	642.2
1.61	11.06	15.76	695.5	642.3
1.62	11.08	15.77	695.1	642.3
1.63	11.06	15.74	695.2	642.3
1.64	11.07	15.73	695.2	642.4
1.65	11.08	15.72	695.1	642.2
1.66	11.07	15.7	695.3	642.3
1.67	11.07	15.68	695.4	642.2
1.68	11.06	15.67	695.3	642.4
1.69	11.05	15.65	695.7	642.4
1.7	11.06	15.63	695.4	642.3
1.71	11.06	15.62	695.4	642.3
1.72	11.08	15.62	695.3	642.6
1.73	11.06	15.6	695.5	642.2
1.74	11.06	15.58	695.4	642.4
1.75	11.05	15.56	695.2	642.4
1.76	11.06	15.55	695.3	642.4
1.77	11.06	15.55	695.3	642.2
1.78	11.06	15.52	695.3	642.3
1.79	11.06	15.51	695.4	642.5
1.8	11.06	15.5	695.5	642.3
1.81	11.06	15.48	695.3	642.3
1.82	11.07	15.49	695.4	642.5
1.83	11.07	15.46	695.5	642.1
1.84	11.06	15.44	695.3	642.5
1.85	11.07	15.44	695.3	642.4
1.86	11.06	15.41	695.3	642.3
1.87	11.06	15.41	695.4	642.3
1.88	11.07	15.39	695.5	642.3
1.89	11.06	15.37	695.2	642.4
1.9	11.07	15.38	695.3	642.1
1.91	11.06	15.35	695.3	642.2
1.92	11.06	15.34	695.1	642.4
1.93	11.06	15.33	695.3	642.2
1.94	11.06	15.3	695.5	642.2
1.95	11.06	15.3	695.4	642.3
1.96	11.05	15.28	695.3	642.4
1.97	11.05	15.26	695.4	642.2
1.98	11.05	15.25	695.4	642.2
1.99	11.06	15.24	695.2	642.4
2.0	11.05	15.22	695.2	642.5
2.01	11.07	15.22	695.4	642.3
2.02	11.06	15.2	695.1	642.3
2.03	11.06	15.18	695.5	642.3
2.04	11.05	15.16	695.2	642.3
2.05	11.07	15.16	695.3	642.4
2.06	11.06	15.14	695.5	642.4
2.07	11.05	15.12	695.2	642.2
2.08	11.07	15.13	695.4	642.1
2.09	11.07	15.1	695.4	642.3
2.1	11.06	15.09	695.2	642.4
2.11	11.06	15.08	695.3	642.4
2.12	11.06	15.06	695.4	642.4
2.13	11.07	15.05	695.1	642.5
2.14	11.06	15.03	695.4	642.3
2.15	11.06	15.02	695.6	642.4
2.16	11.07	15.02	695.4	642.3
2.17	11.06	14.99	695.4	642.3
2.18	11.06	14.98	695.4	642.3
2.19	11.07	14.97	695.5	642.4
2.2	11.06	14.95	695.4	642.3
2.21	11.06	14.94	695.4	642.2
2.22	11.05	14.92	695.3	642.2
2.23	11.06	14.91	695.4	642.4
2.24	11.07	14.91	695.2	642.0
2.25	11.06	14.88	695.3	642.3
2.26	11.06	14.88	695.2	642.3
2.27	11.05	14.85	695.3	642.6
2.28	11.06	14.85	695.3	642.3
2.29	11.05	14.83	695.3	642.4
2.3	11.06	14.81	695.4	642.4
2.31	11.05	14.8	695.6	642.2
2.32	11.07	14.79	695.4	642.4
2.33	11.06	14.78	695.3	642.3
2.34	11.07	14.76	695.6	642.4
2.35	11.06	14.74	695.4	642.4
2.36	11.06	14.73	695.4	642.4
2.37	11.05	14.71	695.3	642.2
2.38	11.07	14.71	695.5	642.2
2.39	11.07	14.7	695.5	642.3
2.4	11.07	14.69	695.2	642.3
2.41	11.06	14.66	695.1	642.3
2.42	11.06	14.65	695.3	642.3
2.43	11.05	14.63	695.5	642.5
2.44	11.06	14.63	695.2	642.1
2.45	11.08	14.63	695.3	642.2
2.46	11.06	14.59	695.5	642.5
2.47	11.06	14.58	695.3	642.1
2.48	11.06	14.56	695.3	642.4
2.49	11.05	14.55	695.3	642.4
2.5	11.06	14.54	695.1	642.2
2.51	11.06	14.53	695.5	642.1
2.52	11.06	14.51	695.2	642.2
2.53	11.06	14.5	695.3	642.1
2.54	11.05	14.48	695.3	642.3
2.55	11.07	14.48	695.6	642.2
2.56	11.05	14.45	695.3	642.3
2.57	11.07	14.45	695.3	642.5
2.58	11.07	14.44	695.3	643.5
2.59	11.06	14.41	695.3	644.8
2.6	11.07	14.42	695.1	646.6
2.61	11.07	14.39	695.3	649.0
2.62	11.06	14.38	695.2	649.7
2.63	11.06	14.36	695.4	651.1
2.64	11.05	14.34	695.3	653.8
2.65	11.07	14.35	695.2	654.6
2.66	11.06	14.33	695.3	657.0
2.67	11.07	14.31	695.3	658.0
2.68	11.07	14.3	695.2	658.6
2.69	11.08	14.28	695.5	660.7
2.7	11.05	14.27	695.6	663.0
2.71	11.07	14.25	695.2	664.1
2.72	11.05	14.23	695.4	665.4
2.73	11.05	14.22	695.2	666.5
2.74	11.05	14.2	695.3	668.1
2.75	11.07	14.2	695.2	669.5
2.76	11.06	14.19	695.2	671.2
2.77	11.06	14.18	695.3	672.4
2.78	11.07	14.18	695.3	673.5
2.79	11.06	14.14	695.3	675.4
2.8	11.06	14.12	695.4	677.0
2.81	11.07	14.13	695.2	678.2
2.82	11.05	14.1	695.3	679.5
2.83	11.06	14.08	695.6	680.7
2.84	11.06	14.07	695.1	682.5
2.85	11.05	14.07	695.8	683.9
2.86	11.06	14.05	695.9	685.3
2.87	11.05	14.03	695.5	686.2
2.88	11.06	14.02	697.9	688.0
2.89	11.06	14.0	700.3	689.6
2.9	11.05	13.98	701.9	691.0
2.91	11.06	13.97	702.9	692.2
2.92	11.05	13.95	700.4	693.4
2.93	11.05	13.95	705.7	694.3
2.94	11.07	13.95	707.3	696.1
2.95	11.06	13.93	708.3	697.2
2.96	11.07	13.93	707.4	698.4
2.97	11.07	13.91	709.0	699.8
2.98	11.06	13.88	713.2	700.6
2.99	11.07	13.88	714.4	701.3
3.0	11.07	13.86	715.5	702.5
3.01	11.05	13.85	712.9	703.7
3.02	11.07	13.83	717.8	704.4
3.03	11.06	13.81	719.7	705.5
3.04	11.06	13.8	720.6	706.6
3.05	11.05	13.78	719.8	707.4
3.06	11.07	13.78	720.3	708.4
3.07	11.06	13.77	725.4	708.9
3.08	11.05	13.74	726.0	710.2
3.09	11.06	13.74	726.8	711.4
3.1	11.07	13.73	724.6	712.6
3.11	11.06	13.71	729.6	713.3
3.12	11.06	13.7	730.7	714.6
3.13	11.07	13.69	732.4	715.2
3.14	11.08	13.68	731.0	716.6
3.15	11.08	13.67	731.8	718.0
3.16	11.07	13.65	735.6	718.7
3.17	11.07	13.64	736.8	720.0
3.18	11.08	13.62	737.8	720.7
3.19	11.07	13.61	735.5	721.6
3.2	11.08	13.6	740.5	723.4
3.21	11.07	13.58	741.9	724.3
3.22	11.06	13.57	742.2	725.3
3.23	11.08	13.56	742.4	726.4
3.24	11.08	13.55	743.9	728.0
3.25	11.08	13.54	746.7	729.4
3.26	11.07	13.52	747.9	730.4
3.27	11.08	13.51	749.2	732.1
3.28	11.08	13.49	747.2	733.5
3.29	11.07	13.48	751.8	734.5
3.3	11.06	13.45	752.6	735.7
3.31	11.05	13.43	753.8	736.8
3.32	11.04	13.41	753.7	738.0
3.33	11.05	13.4	753.6	739.0
3.34	11.05	13.39	757.8	740.5
3.35	11.06	13.39	758.4	741.6
3.36	11.06	13.37	759.1	742.5
3.37	11.05	13.36	757.6	744.1
3.38	11.06	13.35	761.5	745.3
3.39	11.06	13.33	763.6	746.5
3.4	11.06	13.31	764.3	747.9
3.41	11.07	13.31	765.0	749.0
3.42	11.07	13.3	763.8	750.0
3.43	11.07	13.29	767.6	751.2
3.44	11.05	13.25	768.5	752.2
3.45	11.07	13.25	769.8	753.2
3.46	11.07	13.26	768.1	754.8
3.47	11.09	13.25	772.4	755.7
3.48	11.07	13.23	772.9	756.8
3.49	11.07	13.21	774.0	757.8
3.5	11.08	13.2	774.1	759.2
3.51	11.07	13.18	774.5	760.1
3.52	11.05	13.15	777.7	761.0
3.53	11.06	13.15	778.3	762.0
3.54	11.05	13.13	779.4	763.1
3.55	11.05	13.13	777.9	763.8
3.56	11.06	13.12	780.4	764.2
3.57	11.06	13.1	783.2	765.4
3.58	11.06	13.09	783.8	766.2
3.59	11.06	13.07	784.3	767.1
3.6	11.05	13.05	782.9	767.8
3.61	11.07	13.07	787.2	768.7
3.62	11.06	13.03	788.0	769.4
3.63	11.06	13.03	788.2	770.3
3.64	11.06	13.0	787.4	771.2
3.65	11.06	13.0	790.5	771.9
3.66	11.07	12.99	791.2	773.2
3.67	11.06	12.96	793.1	774.4
3.68	11.07	12.97	793.1	775.4
3.69	11.05	12.94	792.8	776.7
3.7	11.07	12.94	796.5	777.8
3.71	11.07	12.93	797.2	778.7
3.72	11.07	12.92	797.5	779.9
3.73	11.06	12.89	796.8	781.0
3.74	11.06	12.88	799.3	781.6
3.75	11.05	12.86	801.2	782.7
3.76	11.07	12.86	801.9	783.6
3.77	11.06	12.85	802.6	784.6
3.78	11.07	12.83	802.2	785.5
3.79	11.06	12.82	805.6	786.8
3.8	11.06	12.8	805.6	787.6
3.81	11.05	12.78	805.9	788.6
3.82	11.06	12.77	805.1	789.8
3.83	11.06	12.77	809.1	790.7
3.84	11.07	12.77	810.0	791.7
3.85	11.05	12.74	810.7	793.3
3.86	11.05	12.72	810.9	793.8
3.87	11.06	12.71	811.0	795.0
3.88	11.06	12.7	813.8	795.8
3.89	11.06	12.69	814.7	796.6
3.9	11.07	12.68	815.7	797.1
3.91	11.05	12.66	814.8	798.0
3.92	11.06	12.65	817.7	798.4
3.93	11.06	12.64	818.1	799.2
3.94	11.06	12.63	819.0	799.9
3.95	11.07	12.62	818.8	800.9
3.96	11.06	12.6	819.4	801.6
3.97	11.06	12.59	822.1	802.0
3.98	11.05	12.57	822.3	803.2
3.99	11.05	12.56	823.5	804.0
4.0	11.07	12.56	822.3	804.9
4.01	11.06	12.54	825.5	805.8
4.02	11.06	12.53	825.4	806.8
4.03	11.06	12.52	826.9	807.9
4.04	11.05	12.5	826.8	808.9
4.05	11.06	12.5	827.6	809.8
4.06	11.06	12.48	829.7	810.8
4.07	11.05	12.46	830.4	811.6
4.08	11.05	12.45	831.0	812.6
4.09	11.05	12.43	830.1	813.7
4.1	11.07	12.44	833.0	814.5
4.11	11.06	12.42	833.7	815.1
4.12	11.05	12.4	834.5	816.1
4.13	11.06	12.39	834.0	816.8
4.14	11.05	12.38	834.7	817.8
4.15	11.07	12.38	837.8	818.6
4.16	11.06	12.36	837.7	819.4
4.17	11.06	12.35	838.5	820.5
4.18	11.06	12.34	837.4	821.4
4.19	11.06	12.32	840.6	821.9
4.2	11.06	12.32	841.0	822.5
4.21	11.07	12.3	841.7	823.4
4.22	11.06	12.28	841.7	823.9
4.23	11.07	12.28	843.0	825.0
4.24	11.06	12.27	844.7	825.5
4.25	11.06	12.25	845.6	826.3
4.26	11.06	12.24	845.7	827.0
4.27	11.07	12.23	844.7	827.8
4.28	11.07	12.22	848.0	828.8
4.29	11.06	12.2	848.6	829.8
4.3	11.07	12.19	849.0	830.2
4.31	11.06	12.18	848.3	831.0
4.32	11.07	12.17	850.9	831.8
4.33	11.06	12.15	852.0	832.8
4.34	11.06	12.14	852.3	833.8
4.35	11.06	12.14	852.4	834.4
4.36	11.07	12.13	853.2	835.0
4.37	11.05	12.1	855.0	836.2
4.38	11.07	12.1	855.7	837.0
4.39	11.05	12.08	856.1	837.7
4.4	11.07	12.07	855.6	838.6
4.41	11.05	12.06	858.6	839.6
4.42	11.05	12.04	858.7	840.2
4.43	11.05	12.03	859.4	841.6
4.44	11.06	12.03	859.1	841.8
4.45	11.05	12.01	861.0	842.6
4.46	11.06	12.0	862.1	843.2
4.47	11.05	11.99	862.4	843.8
4.48	11.07	11.99	862.6	844.6
4.49	11.06	11.98	862.5	845.2
4.5	11.06	11.95	865.0	845.7
4.51	11.06	11.95	865.5	846.6
4.52	11.07	11.94	866.1	847.2
4.53	11.06	11.93	865.7	847.7
4.54	11.07	11.92	867.5	848.6
4.55	11.06	11.91	868.3	849.4
4.56	11.06	11.88	869.0	850.0
4.57	11.05	11.88	869.1	850.7
4.58	11.07	11.87	868.9	851.7
4.59	11.06	11.86	871.8	852.4
4.6	11.06	11.85	872.2	853.3
4.61	11.06	11.83	871.7	854.0
4.62	11.06	11.83	871.5	854.8
4.63	11.06	11.81	874.7	855.5
4.64	11.06	11.8	875.3	856.0
4.65	11.06	11.79	875.3	857.2
4.66	11.05	11.78	874.9	858.0
4.67	11.06	11.77	877.0	858.4
4.68	11.05	11.76	877.9	859.3
4.69	11.06	11.74	878.3	859.8
4.7	11.05	11.73	878.9	860.4
4.71	11.06	11.72	878.4	860.7
4.72	11.06	11.71	880.7	861.3
4.73	11.06	11.69	881.0	862.1
4.74	11.06	11.69	881.1	863.0
4.75	11.08	11.69	881.0	863.5
4.76	11.05	11.67	883.4	864.4
4.77	11.07	11.65	883.7	865.0
4.78	11.06	11.65	883.9	865.8
4.79	11.06	11.63	883.9	866.4
4.8	11.05	11.62	885.4	867.0
4.81	11.06	11.61	886.6	867.7
4.82	11.07	11.6	886.8	868.8
4.83	11.06	11.59	887.6	869.2
4.84	11.06	11.58	887.2	869.8
4.85	11.07	11.57	889.7	870.6
4.86	11.05	11.56	890.1	871.3
4.87	11.06	11.56	890.9	871.8
4.88	11.06	11.54	889.5	872.5
4.89	11.06	11.52	891.9	873.4
4.9	11.06	11.52	892.6	873.9
4.91	11.06	11.51	893.0	874.0
4.92	11.06	11.5	893.3	874.4
4.93	11.06	11.49	893.6	875.3
4.94	11.05	11.47	895.3	875.5
4.95	11.06	11.47	895.8	876.2
4.96	11.06	11.46	896.5	877.3
4.97	11.06	11.44	896.1	877.6
4.98	11.06	11.43	898.0	878.3
4.99	11.06	11.42	898.5	878.8
5.0	11.06	11.41	898.9	879.6
5.01	11.06	11.41	898.7	880.8
5.02	11.07	11.39	900.0	881.1
5.03	11.06	11.38	900.4	882.0
5.04	11.07	11.37	901.3	882.5
5.05	11.07	11.37	902.5	882.9
5.06	11.06	11.35	901.8	883.5
5.07	11.06	11.34	903.7	884.0
5.08	11.07	11.34	904.3	884.8
5.09	11.05	11.32	905.1	885.3
5.1	11.05	11.3	904.1	885.7
5.11	11.05	11.3	905.8	886.3
5.12	11.06	11.29	906.4	886.8
5.13	11.05	11.28	906.9	887.0
5.14	11.06	11.27	907.2	887.6
5.15	11.05	11.25	907.6	888.0
5.16	11.05	11.24	908.9	888.6
5.17	11.06	11.24	909.1	889.4
5.18	11.05	11.22	909.5	889.7
5.19	11.05	11.21	909.3	890.4
5.2	11.06	11.21	911.2	891.2
5.21	11.05	11.2	911.3	891.4
5.22	11.09	11.2	911.5	892.2
5.23	11.06	11.18	911.5	892.9
5.24	11.06	11.17	913.5	893.6
5.25	11.07	11.17	913.4	894.2
5.26	11.07	11.15	914.7	894.7
5.27	11.07	11.15	914.8	895.3
5.28	11.06	11.13	915.5	896.1
5.29	11.06	11.12	916.0	896.7
5.3	11.07	11.11	916.3	897.4
5.31	11.06	11.09	916.8	897.5
5.32	11.07	11.09	917.1	898.3
5.33	11.06	11.07	918.5	898.4
5.34	11.07	11.07	918.5	898.8
5.35	11.06	11.06	919.3	899.2
5.36	11.05	11.04	919.0	899.9
5.37	11.06	11.04	920.4	900.4
5.38	11.05	11.02	920.7	901.0
5.39	11.06	11.02	921.4	901.3
5.4	11.07	11.02	921.5	901.8
5.41	11.05	11.0	922.5	902.2
5.42	11.05	10.99	923.2	902.7
5.43	11.06	10.98	924.3	903.2
5.44	11.06	10.97	924.1	903.6
5.45	11.07	10.97	924.5	904.1
5.46	11.05	10.95	925.2	904.9
5.47	11.06	10.94	925.6	905.1
5.48	11.06	10.94	925.7	905.2
5.49	11.06	10.92	926.0	905.6
5.5	11.05	10.91	926.7	906.3
5.51	11.06	10.9	926.9	906.4
5.52	11.06	10.9	928.2	907.0
5.53	11.07	10.89	928.0	907.3
5.54	11.05	10.87	929.2	907.4
5.55	11.07	10.87	929.9	907.7
5.56	11.06	10.85	929.8	908.1
5.57	11.07	10.85	930.1	908.2
5.58	11.07	10.84	930.2	908.4
5.59	11.07	10.83	931.5	908.6
5.6	11.07	10.83	932.2	908.8
5.61	11.06	10.82	932.7	909.2
5.62	11.04	10.79	932.3	909.5
5.63	11.06	10.79	933.8	910.1
5.64	11.07	10.79	934.2	910.6
5.65	11.06	10.78	934.3	910.7
5.66	11.07	10.76	934.1	911.6
5.67	11.05	10.75	935.5	911.9
5.68	11.06	10.75	935.9	912.5
5.69	11.06	10.74	936.4	913.0
5.7	11.06	10.73	936.4	913.6
5.71	11.06	10.73	936.0	914.0
5.72	11.06	10.71	938.2	914.8
5.73	11.05	10.69	937.9	915.1
5.74	11.05	10.68	938.3	915.9
5.75	11.06	10.68	938.4	916.2
5.76	11.08	10.68	940.0	916.5
5.77	11.05	10.66	940.2	917.2
5.78	11.05	10.64	940.4	917.5
5.79	11.06	10.64	940.5	917.9
5.8	11.07	10.64	941.4	918.2
5.81	11.07	10.64	942.0	918.5
5.82	11.06	10.62	942.6	919.0
5.83	11.06	10.61	942.7	919.3
5.84	11.06	10.6	941.6	919.9
5.85	11.06	10.6	943.8	920.3
5.86	11.06	10.58	944.2	920.6
5.87	11.07	10.57	944.5	921.2
5.88	11.06	10.56	943.9	921.4
5.89	11.06	10.56	945.5	921.5
5.9	11.06	10.54	945.9	922.3
5.91	11.05	10.53	946.4	922.6
5.92	11.07	10.54	946.2	923.0
5.93	11.05	10.52	946.4	923.3
5.94	11.07	10.52	947.2	923.8
5.95	11.05	10.5	948.0	924.1
5.96	11.07	10.5	948.4	924.4
5.97	11.06	10.49	948.0	924.7
5.98	11.06	10.48	949.5	925.2
5.99	11.06	10.47	949.4	925.7
6.0	11.06	10.46	949.7	925.8
6.01	11.05	10.45	949.6	926.2
6.02	11.05	10.44	950.8	926.4
6.03	11.06	10.44	951.3	926.5
6.04	11.05	10.43	951.9	927.3
6.05	11.05	10.41	952.2	927.4
6.06	11.05	10.4	951.9	927.6
6.07	11.07	10.41	953.1	928.2
6.08	11.05	10.39	953.2	928.3
6.09	11.06	10.38	953.7	928.9
6.1	11.05	10.38	953.7	929.2
6.11	11.07	10.36	955.2	929.5
6.12	11.05	10.36	954.9	929.8
6.13	11.05	10.34	954.8	930.0
6.14	11.05	10.34	955.2	931.0
6.15	11.06	10.33	956.7	931.4
6.16	11.05	10.32	956.9	931.8
6.17	11.05	10.31	957.0	931.9
6.18	11.05	10.31	956.7	932.5
6.19	11.05	10.3	957.6	933.0
6.2	11.06	10.29	958.7	933.6
6.21	11.06	10.28	958.7	933.9
6.22	11.05	10.28	958.9	933.9
6.23	11.06	10.28	958.4	934.3
6.24	11.05	10.25	960.0	934.5
6.25	11.08	10.27	959.8	934.5
6.26	11.06	10.24	960.3	935.2
6.27	11.08	10.26	959.9	935.5
6.28	11.06	10.23	961.6	936.1
6.29	11.08	10.23	961.8	936.6
6.3	11.06	10.21	961.7	936.8
6.31	11.08	10.22	962.2	937.0
6.32	11.06	10.2	962.8	937.5
6.33	11.08	10.2	963.7	938.1
6.34	11.06	10.18	963.7	938.5
6.35	11.07	10.18	964.3	938.9
6.36	11.07	10.17	963.5	939.5
6.37	11.05	10.14	964.7	939.8
6.38	11.07	10.15	964.8	940.2
6.39	11.05	10.13	965.5	940.1
6.4	11.06	10.13	965.0	940.7
6.41	11.08	10.14	966.1	941.1
6.42	11.06	10.11	966.6	941.4
6.43	11.07	10.12	966.2	941.7
6.44	11.06	10.1	965.8	941.6
6.45	11.05	10.09	967.5	942.1
6.46	11.06	10.09	967.6	942.1
6.47	11.04	10.07	968.4	942.2
6.48	11.06	10.06	968.5	942.6
6.49	11.07	10.07	968.7	942.7
6.5	11.05	10.05	969.2	943.5
6.51	11.05	10.04	969.2	943.7
6.52	11.06	10.04	969.7	943.9
6.53	11.06	10.04	969.5	944.4
6.54	11.05	10.02	970.3	944.9
6.55	11.05	10.01	970.7	945.2
6.56	11.07	10.01	970.6	945.9
6.57	11.06	10.0	970.7	946.2
6.58	11.06	9.99	971.9	946.5
6.59	11.07	9.99	972.0	946.7
6.6	11.07	9.99	972.7	947.5
6.61	11.07	9.97	972.5	947.5
6.62	11.06	9.96	972.7	947.8
6.63	11.05	9.95	973.4	948.0
6.64	11.07	9.95	973.9	948.6
6.65	11.06	9.95	974.1	948.7
6.66	11.06	9.94	973.4	949.1
6.67	11.05	9.92	974.6	949.0
6.68	11.05	9.9	975.2	949.1
6.69	11.06	9.91	976.0	949.4
6.7	11.07	9.91	975.7	949.5
6.71	11.08	9.91	976.4	949.8
6.72	11.05	9.88	976.4	950.1
6.73	11.05	9.87	976.6	950.2
6.74	11.05	9.87	976.5	950.8
6.75	11.05	9.86	976.4	950.8
6.76	11.06	9.86	977.8	951.1
6.77	11.08	9.86	978.5	951.2
6.78	11.07	9.85	978.9	951.6
6.79	11.08	9.85	978.1	951.8
6.8	11.07	9.84	979.0	952.1
6.81	11.07	9.83	979.7	952.1
6.82	11.05	9.81	979.6	952.6
6.83	11.06	9.8	979.4	952.9
6.84	11.05	9.79	980.3	953.4
6.85	11.06	9.79	981.0	953.6
6.86	11.06	9.79	981.0	954.0
6.87	11.07	9.79	981.4	954.2
6.88	11.07	9.78	981.4	954.4
6.89	11.06	9.77	981.7	954.8
6.9	11.05	9.75	982.3	954.9
6.91	11.04	9.74	982.4	955.3
6.92	11.05	9.74	982.3	955.2
6.93	11.06	9.73	983.5	955.5
6.94	11.06	9.73	983.0	955.9
6.95	11.06	9.72	983.2	955.7
6.96	11.07	9.72	983.5	956.0
6.97	11.07	9.72	984.5	956.0
6.98	11.07	9.71	984.4	956.5
6.99	11.05	9.69	984.8	956.6
7.0	11.05	9.68	984.4	957.3
7.01	11.05	9.67	985.3	957.7
7.02	11.04	9.66	986.0	958.0
7.03	11.05	9.66	986.3	958.2
7.04	11.05	9.66	986.2	958.7
7.05	11.06	9.66	986.2	958.8
7.06	11.07	9.66	987.4	959.3
7.07	11.07	9.64	987.0	959.4
7.08	11.07	9.64	987.6	959.9
7.09	11.05	9.62	987.1	960.4
7.1	11.06	9.61	988.1	960.4
7.11	11.04	9.6	988.3	960.7
7.12	11.05	9.59	988.8	961.2
7.13	11.05	9.59	988.9	961.3
7.14	11.06	9.59	988.8	961.5
7.15	11.06	9.58	989.8	961.8
7.16	11.08	9.59	989.7	962.1
7.17	11.07	9.57	990.3	962.4
7.18	11.08	9.58	990.2	962.4
7.19	11.06	9.56	990.8	962.5
7.2	11.06	9.56	991.4	962.7
7.21	11.07	9.55	991.4	962.6
7.22	11.06	9.53	991.2	963.1
7.23	11.05	9.52	991.6	963.4
7.24	11.05	9.51	992.1	963.8
7.25	11.04	9.51	992.4	963.7
7.26	11.05	9.51	993.1	964.4
7.27	11.05	9.49	992.7	964.4
7.28	11.05	9.49	993.6	964.7
7.29	11.04	9.48	993.6	964.8
7.3	11.05	9.48	993.5	965.2
7.31	11.06	9.48	993.4	965.1
7.32	11.06	9.47	994.3	965.4
7.33	11.06	9.46	994.2	965.6
7.34	11.06	9.45	994.9	966.0
7.35	11.05	9.45	994.7	966.3
7.36	11.06	9.44	995.6	966.6
7.37	11.05	9.43	995.6	966.7
7.38	11.04	9.42	995.8	967.0
7.39	11.06	9.42	996.0	967.2
7.4	11.06	9.41	996.0	967.4
7.41	11.06	9.41	996.7	967.5
7.42	11.06	9.41	997.1	968.0
7.43	11.06	9.4	997.5	968.3
7.44	11.07	9.4	997.2	968.4
7.45	11.08	9.4	998.0	968.2
7.46	11.08	9.39	997.9	968.4
7.47	11.07	9.39	998.1	968.4
7.48	11.07	9.38	998.1	968.8
7.49	11.08	9.37	998.1	968.8
7.5	11.05	9.36	999.0	969.5
7.51	11.06	9.35	998.6	969.7
7.52	11.06	9.34	998.9	970.0
7.53	11.05	9.33	999.2	969.9
7.54	11.04	9.32	1000.0	970.4
7.55	11.05	9.32	1000.3	970.3
7.56	11.04	9.31	1000.6	971.0
7.57	11.04	9.3	1000.5	970.8
7.58	11.05	9.3	1001.1	971.2
7.59	11.05	9.29	1001.2	971.2
7.6	11.05	9.29	1001.4	971.8
7.61	11.06	9.29	1001.6	971.9
7.62	11.05	9.28	1001.3	972.1
7.63	11.06	9.28	1001.8	972.4
7.64	11.07	9.28	1002.3	972.8
7.65	11.08	9.28	1002.6	972.9
7.66	11.06	9.26	1001.9	973.3
7.67	11.06	9.25	1002.8	973.4
7.68	11.05	9.24	1003.2	973.6
7.69	11.05	9.23	1003.6	974.0
7.7	11.05	9.23	1003.2	974.0
7.71	11.04	9.21	1004.0	974.2
7.72	11.06	9.22	1004.4	974.0
7.73	11.07	9.23	1004.0	974.2
7.74	11.07	9.22	1004.7	974.5
7.75	11.07	9.21	1005.1	974.8
7.76	11.06	9.19	1005.4	974.9
7.77	11.04	9.19	1005.9	974.8
7.78	11.05	9.18	1005.5	975.4
7.79	11.04	9.17	1005.3	975.7
7.8	11.06	9.18	1006.4	975.9
7.81	11.06	9.18	1005.9	976.0
7.82	11.07	9.17	1006.4	976.6
7.83	11.06	9.16	1006.6	976.3
7.84	11.05	9.14	1006.6	976.8
7.85	11.06	9.15	1007.0	976.9
7.86	11.08	9.15	1007.3	977.2
7.87	11.06	9.14	1007.4	977.3
7.88	11.06	9.13	1007.8	977.7
7.89	11.05	9.11	1008.6	977.5
7.9	11.06	9.11	1008.1	978.0
7.91	11.06	9.11	1008.6	977.7
7.92	11.07	9.11	1008.3	978.2
7.93	11.07	9.11	1008.6	978.2
7.94	11.07	9.1	1009.0	978.6
7.95	11.05	9.09	1009.4	978.3
7.96	11.05	9.07	1009.4	978.6
7.97	11.05	9.07	1009.3	978.6
7.98	11.07	9.07	1010.0	978.9
7.99	11.06	9.07	1010.3	978.7
8.0	11.06	9.06	1010.4	979.2
8.01	11.04	9.05	1010.2	979.3
8.02	11.05	9.05	1011.4	979.9
8.03	11.07	9.05	1011.4	979.8
8.04	11.07	9.05	1011.5	980.0
8.05	11.05	9.03	1011.0	979.9
8.06	11.05	9.02	1011.6	980.2
8.07	11.06	9.02	1012.0	979.8
8.08	11.07	9.02	1012.6	980.4
8.09	11.06	9.01	1012.8	980.8
8.1	11.05	9.0	1012.1	981.0
8.11	11.06	9.0	1013.0	981.0
8.12	11.06	9.0	1012.8	981.2
8.13	11.06	8.99	1013.3	981.2
8.14	11.06	8.98	1013.1	981.6
8.15	11.05	8.97	1014.5	981.5
8.16	11.06	8.97	1014.3	982.0
8.17	11.08	8.98	1014.2	982.0
8.18	11.08	8.97	1014.6	982.2
8.19	11.08	8.96	1014.9	982.2
8.2	11.05	8.95	1015.2	982.8
8.21	11.06	8.94	1015.1	982.4
8.22	11.07	8.94	1015.4	982.8
8.23	11.08	8.94	1015.2	982.7
8.24	11.06	8.93	1015.9	983.1
8.25	11.06	8.92	1016.0	983.0
8.26	11.06	8.92	1016.5	983.3
8.27	11.07	8.92	1016.0	983.7
8.28	11.05	8.9	1016.7	983.9
8.29	11.06	8.9	1016.8	984.0
8.3	11.06	8.9	1017.1	984.0
8.31	11.06	8.89	1017.0	983.8
8.32	11.05	8.88	1017.0	984.2
8.33	11.07	8.88	1017.6	984.2
8.34	11.05	8.87	1017.8	984.4
8.35	11.06	8.87	1017.8	984.7
8.36	11.06	8.87	1017.8	984.7
8.37	11.06	8.86	1018.3	984.3
8.38	11.05	8.85	1018.4	984.8
8.39	11.06	8.85	1018.7	984.6
8.4	11.06	8.85	1018.6	984.8
8.41	11.06	8.83	1019.1	984.9
8.42	11.06	8.84	1019.4	985.1
8.43	11.07	8.83	1019.5	985.0
8.44	11.06	8.82	1019.2	985.3
8.45	11.06	8.81	1019.3	985.0
8.46	11.06	8.81	1020.2	985.3
8.47	11.05	8.8	1019.8	985.4
8.48	11.05	8.79	1020.1	985.5
8.49	11.07	8.8	1020.0	985.4
8.5	11.06	8.79	1020.7	985.9
8.51	11.05	8.78	1021.0	985.9
8.52	11.07	8.79	1021.4	986.1
8.53	11.06	8.78	1021.1	986.3
8.54	11.05	8.77	1021.4	986.3
8.55	11.06	8.78	1021.8	986.3
8.56	11.06	8.76	1021.9	986.8
8.57	11.06	8.76	1021.8	986.8
8.58	11.07	8.76	1021.2	987.0
8.59	11.06	8.74	1021.7	987.3
8.6	11.06	8.74	1022.3	987.6
8.61	11.05	8.73	1022.8	987.6
8.62	11.05	8.73	1022.0	987.7
8.63	11.06	8.73	1023.0	988.2
8.64	11.06	8.71	1023.0	988.3
8.65	11.06	8.72	1023.2	988.0
8.66	11.07	8.71	1022.9	988.6
8.67	11.05	8.7	1023.5	988.8
8.68	11.07	8.71	1024.2	989.0
8.69	11.04	8.69	1024.2	988.8
8.7	11.07	8.69	1024.4	989.3
8.71	11.06	8.69	1024.4	989.3
8.72	11.06	8.68	1025.5	989.4
8.73	11.06	8.68	1025.2	989.6
8.74	11.07	8.67	1025.1	989.4
8.75	11.07	8.67	1024.5	990.0
8.76	11.07	8.67	1026.1	989.9
8.77	11.05	8.66	1025.5	989.9
8.78	11.06	8.66	1026.2	990.0
8.79	11.06	8.65	1025.7	990.3
8.8	11.06	8.65	1026.2	990.7
8.81	11.06	8.64	1026.7	990.5
8.82	11.06	8.64	1027.0	990.8
8.83	11.05	8.63	1026.6	990.8
8.84	11.06	8.63	1026.4	991.4
8.85	11.06	8.62	1027.7	991.1
8.86	11.06	8.62	1027.9	991.8
8.87	11.07	8.62	1027.8	991.6
8.88	11.04	8.59	1027.6	991.5
8.89	11.07	8.6	1028.4	991.7
8.9	11.05	8.59	1028.1	992.0
8.91	11.06	8.59	1028.2	992.1
8.92	11.06	8.59	1027.9	992.2
8.93	11.06	8.58	1028.4	992.6
8.94	11.06	8.58	1028.6	992.7
8.95	11.06	8.58	1028.2	992.5
8.96	11.06	8.57	1028.9	993.0
8.97	11.08	8.57	1029.1	993.1
8.98	11.06	8.56	1029.3	993.1
8.99	11.07	8.56	1029.7	993.3
9.0	11.06	8.55	1029.8	993.6
9.01	11.07	8.55	1029.8	993.7
9.02	11.07	8.55	1030.3	993.9
9.03	11.07	8.54	1030.2	993.4
9.04	11.06	8.54	1030.3	993.7
9.05	11.06	8.53	1029.7	993.6
9.06	11.06	8.52	1030.4	994.0
9.07	11.06	8.52	1030.4	994.0
9.08	11.05	8.51	1030.5	994.4
9.09	11.05	8.51	1030.5	994.5
9.1	11.06	8.51	1030.7	994.5
9.11	11.06	8.5	1031.6	994.5
9.12	11.06	8.5	1031.6	994.7
9.13	11.06	8.49	1031.5	994.6
9.14	11.06	8.49	1031.2	994.5
9.15	11.06	8.48	1032.0	994.8
9.16	11.06	8.48	1031.8	994.8
9.17	11.06	8.47	1032.2	995.0
9.18	11.06	8.47	1032.0	994.9
9.19	11.05	8.46	1032.2	994.8
9.2	11.07	8.47	1032.7	995.2
9.21	11.04	8.45	1033.0	995.2
9.22	11.06	8.45	1033.2	995.4
9.23	11.07	8.45	1032.5	995.2
9.24	11.06	8.44	1033.2	995.6
9.25	11.06	8.44	1033.0	995.6
9.26	11.06	8.44	1033.9	996.1
9.27	11.06	8.43	1033.4	996.1
9.28	11.06	8.42	1034.3	996.3
9.29	11.06	8.42	1033.8	996.1
9.3	11.06	8.42	1034.2	996.4
9.31	11.06	8.41	1033.4	996.5
9.32	11.07	8.41	1034.3	996.5
9.33	11.06	8.41	1035.0	996.5
9.34	11.07	8.4	1035.1	997.1
9.35	11.05	8.39	1035.0	997.1
9.36	11.07	8.39	1035.0	997.1
9.37	11.06	8.39	1035.8	996.8
9.38	11.07	8.38	1035.8	997.3
9.39	11.05	8.37	1035.0	997.2
9.4	11.05	8.37	1035.3	997.5
9.41	11.06	8.37	1036.2	997.6
9.42	11.05	8.36	1036.4	997.7
9.43	11.06	8.36	1036.4	997.8
9.44	11.06	8.36	1036.1	997.9
9.45	11.06	8.35	1036.9	998.1
9.46	11.07	8.35	1036.8	998.5
9.47	11.05	8.34	1036.9	998.3
9.48	11.07	8.34	1037.2	998.5
9.49	11.06	8.34	1037.2	998.5
9.5	11.07	8.33	1037.5	998.6
9.51	11.07	8.33	1037.3	998.8
9.52	11.06	8.33	1037.9	998.7
9.53	11.07	8.32	1037.6	998.8
9.54	11.06	8.31	1038.1	999.0
9.55	11.06	8.31	1038.1	999.1
9.56	11.06	8.31	1037.9	999.4
9.57	11.07	8.31	1037.6	998.9
9.58	11.06	8.3	1038.7	999.3
9.59	11.07	8.3	1038.5	999.4
9.6	11.06	8.29	1038.7	999.6
9.61	11.05	8.29	1038.3	999.4
9.62	11.06	8.28	1038.1	999.7
9.63	11.06	8.27	1038.6	999.7
9.64	11.06	8.27	1039.0	999.7
9.65	11.06	8.27	1038.8	999.8
9.66	11.05	8.27	1038.7	1000.1
9.67	11.06	8.26	1039.9	999.9
9.68	11.05	8.26	1039.3	1000.2
9.69	11.06	8.25	1039.6	1000.2
9.7	11.05	8.25	1040.0	1000.4
9.71	11.06	8.24	1040.1	1000.4
9.72	11.06	8.25	1040.4	1001.0
9.73	11.07	8.24	1040.4	1000.6
9.74	11.06	8.24	1040.2	1000.6
9.75	11.06	8.23	1040.7	1000.7
9.76	11.06	8.23	1041.4	1001.0
9.77	11.07	8.23	1041.6	1001.2
9.78	11.05	8.22	1041.5	1001.2
9.79	11.06	8.22	1041.4	1001.2
9.8	11.06	8.21	1041.8	1001.6
9.81	11.05	8.2	1041.8	1001.6
9.82	11.06	8.2	1042.2	1002.0
9.83	11.06	8.2	1041.6	1001.5
9.84	11.06	8.19	1043.1	1001.8
9.85	11.05	8.19	1043.3	1001.8
9.86	11.06	8.19	1043.0	1002.0
9.87	11.05	8.18	1042.3	1002.2
9.88	11.06	8.19	1042.8	1002.0
9.89	11.06	8.17	1043.6	1002.4
9.9	11.06	8.17	1043.6	1002.2
9.91	11.05	8.17	1043.2	1002.6
9.92	11.07	8.17	1043.4	1002.5
9.93	11.06	8.17	1043.6	1002.5
9.94	11.05	8.15	1043.5	1002.8
9.95	11.06	8.16	1043.9	1002.9
9.96	11.07	8.15	1043.5	1003.1
9.97	11.06	8.14	1044.3	1002.8
9.98	11.06	8.14	1044.4	1003.3
9.99	11.06	8.14	1044.2	1003.0
10.0	11.07	8.14	1044.3	1003.2
10.01	11.06	8.13	1044.7	1003.2
10.02	11.05	8.12	1044.6	1003.8
10.03	11.06	8.12	1045.2	1003.4
10.04	11.06	8.12	1045.4	1003.7
10.05	11.06	8.12	1044.7	1003.5
10.06	11.06	8.11	1046.2	1003.9
10.07	11.06	8.11	1045.8	1003.7
10.08	11.07	8.11	1045.9	1003.8
10.09	11.06	8.1	1045.7	1004.0
10.1	11.07	8.1	1046.0	1004.1
10.11	11.06	8.09	1046.2	1004.0
10.12	11.06	8.09	1046.5	1004.3
10.13	11.06	8.09	1045.9	1004.2
10.14	11.06	8.08	1046.3	1004.6
10.15	11.06	8.08	1046.8	1004.0
10.16	11.07	8.08	1047.4	1004.3
10.17	11.06	8.07	1047.3	1004.5
10.18	11.07	8.07	1046.7	1004.3
10.19	11.06	8.06	1047.6	1004.3
10.2	11.05	8.05	1047.4	1004.5
10.21	11.06	8.06	1047.7	1004.4
10.22	11.06	8.05	1047.4	1004.8
10.23	11.07	8.05	1048.2	1004.6
10.24	11.06	8.05	1048.3	1004.8
10.25	11.06	8.04	1048.2	1004.6
10.26	11.06	8.04	1047.5	1004.8
10.27	11.06	8.04	1048.0	1004.9
10.28	11.07	8.03	1048.4	1005.3
10.29	11.07	8.03	1048.3	1004.9
10.3	11.06	8.03	1048.3	1005.0
10.31	11.06	8.02	1048.2	1005.2
10.32	11.07	8.02	1049.1	1005.6
10.33	11.05	8.01	1049.2	1005.3
10.34	11.05	8.01	1049.2	1005.7
10.35	11.06	8.01	1049.0	1005.6
10.36	11.06	8.01	1049.9	1006.0
10.37	11.07	8.01	1049.5	1005.6
10.38	11.06	8.0	1049.4	1006.0
10.39	11.06	7.99	1049.1	1005.7
10.4	11.05	7.99	1049.1	1005.8
10.41	11.06	7.98	1050.0	1005.8
10.42	11.06	7.99	1049.9	1005.9
10.43	11.07	7.98	1050.8	1006.0
10.44	11.06	7.97	1049.9	1006.3
10.45	11.06	7.97	1050.2	1006.2
10.46	11.05	7.96	1050.5	1006.3
10.47	11.07	7.96	1050.3	1006.2
10.48	11.05	7.96	1050.5	1006.2
10.49	11.07	7.96	1050.7	1006.3
10.5	11.06	7.96	1051.1	1006.6
10.51	11.07	7.95	1051.1	1006.4
10.52	11.07	7.95	1050.4	1006.7
10.53	11.06	7.94	1051.4	1006.6
10.54	11.06	7.94	1052.2	1006.6
10.55	11.07	7.94	1051.8	1006.7
10.56	11.06	7.93	1051.6	1006.9
10.57	11.06	7.93	1051.5	1007.1
10.58	11.06	7.93	1052.2	1007.0
10.59	11.06	7.92	1051.6	1007.0
10.6	11.06	7.92	1052.4	1007.1
10.61	11.06	7.92	1051.7	1007.4
10.62	11.06	7.91	1052.4	1007.8
10.63	11.06	7.92	1052.6	1007.5
10.64	11.05	7.9	1052.8	1007.4
10.65	11.06	7.9	1052.8	1007.7
10.66	11.06	7.9	1052.5	1007.7
10.67	11.06	7.9	1052.7	1007.7
10.68	11.06	7.89	1053.1	1008.1
10.69	11.06	7.89	1053.2	1008.3
10.7	11.06	7.89	1053.1	1008.2
10.71	11.05	7.88	1053.9	1007.7
10.72	11.06	7.88	1053.7	1008.1
10.73	11.05	7.88	1053.9	1008.1
10.74	11.06	7.87	1053.6	1008.0
10.75	11.06	7.87	1054.1	1008.1
10.76	11.06	7.87	1054.6	1008.4
10.77	11.06	7.86	1054.3	1008.3
10.78	11.07	7.86	1054.3	1008.5
10.79	11.05	7.85	1054.1	1008.4
10.8	11.06	7.85	1055.0	1008.5
10.81	11.06	7.85	1054.4	1008.3
10.82	11.06	7.84	1054.4	1008.7
10.83	11.06	7.85	1054.9	1008.7
10.84	11.06	7.84	1055.5	1008.7
10.85	11.05	7.84	1055.1	1008.6
10.86	11.06	7.84	1055.4	1009.0
10.87	11.05	7.83	1054.7	1008.9
10.88	11.07	7.84	1055.9	1008.9
10.89	11.07	7.83	1055.3	1009.2
10.9	11.06	7.83	1055.9	1009.4
10.91	11.06	7.82	1055.8	1009.0
10.92	11.07	7.82	1055.1	1009.3
10.93	11.07	7.82	1056.2	1009.4
10.94	11.07	7.82	1056.3	1009.1
10.95	11.06	7.81	1056.3	1009.2
10.96	11.06	7.81	1055.4	1009.5
10.97	11.06	7.8	1056.4	1009.2
10.98	11.05	7.8	1056.2	1009.6
10.99	11.06	7.79	1056.4	1009.5
11.0	11.05	7.78	1056.3	1009.5
11.01	11.05	7.78	1056.7	1009.5
11.02	11.05	7.78	1057.2	1009.7
11.03	11.06	7.78	1057.0	1009.9
11.04	11.07	7.78	1056.6	1009.9
11.05	11.06	7.77	1057.0	1009.9
11.06	11.07	7.77	1057.6	1010.1
11.07	11.07	7.77	1057.5	1009.8
11.08	11.06	7.77	1057.8	1010.0
11.09	11.08	7.77	1057.2	1009.9
11.1	11.07	7.76	1058.1	1010.2
11.11	11.06	7.76	1058.1	1010.2
11.12	11.06	7.75	1058.0	1010.4
11.13	11.06	7.75	1058.0	1009.8
11.14	11.06	7.75	1058.4	1010.4
11.15	11.06	7.74	1058.7	1010.4
11.16	11.05	7.74	1058.7	1010.6
11.17	11.07	7.74	1058.0	1010.7
11.18	11.05	7.73	1058.7	1010.6
11.19	11.06	7.73	1059.0	1010.9
11.2	11.06	7.73	1058.9	1010.7
11.21	11.07	7.73	1058.7	1011.0
11.22	11.06	7.72	1059.0	1010.8
11.23	11.05	7.71	1059.4	1010.6
11.24	11.06	7.72	1059.6	1011.2
11.25	11.07	7.72	1059.6	1011.1
11.26	11.06	7.71	1059.9	1011.1
11.27	11.07	7.71	1059.5	1011.1
11.28	11.06	7.7	1060.3	1011.3
11.29	11.05	7.7	1060.1	1011.4
11.3	11.06	7.7	1060.2	1011.7
11.31	11.06	7.7	1059.3	1011.3
11.32	11.05	7.69	1060.7	1011.8
11.33	11.05	7.68	1060.4	1011.5
11.34	11.06	7.68	1060.6	1011.5
11.35	11.05	7.68	1060.5	1011.8
11.36	11.06	7.68	1061.4	1011.6
11.37	11.06	7.68	1060.9	1011.8
11.38	11.06	7.68	1061.2	1011.9
11.39	11.04	7.67	1061.0	1011.9
11.4	11.06	7.67	1060.4	1012.1
11.41	11.05	7.66	1061.2	1012.0
11.42	11.06	7.66	1061.6	1012.0
11.43	11.06	7.66	1063.0	1012.0
11.44	11.06	7.66	1061.9	1011.7
11.45	11.06	7.65	1061.8	1012.0
11.46	11.06	7.65	1062.3	1012.0
11.47	11.04	7.64	1062.5	1012.0
11.48	11.07	7.65	1061.9	1012.4
11.49	11.06	7.64	1062.6	1012.5
11.5	11.07	7.64	1063.1	1012.5
11.51	11.06	7.64	1063.0	1012.6
11.52	11.07	7.64	1062.6	1012.8
11.53	11.07	7.64	1062.8	1012.8
11.54	11.07	7.63	1062.9	1012.6
11.55	11.06	7.63	1063.3	1012.8
11.56	11.07	7.62	1062.7	1013.0
11.57	11.06	7.62	1063.0	1012.9
11.58	11.05	7.61	1064.0	1012.9
11.59	11.06	7.61	1063.8	1012.3
11.6	11.06	7.61	1063.9	1012.7
11.61	11.07	7.61	1063.5	1012.6
11.62	11.07	7.61	1064.1	1012.9
11.63	11.07	7.61	1063.6	1012.8
11.64	11.05	7.6	1063.9	1013.1
11.65	11.07	7.6	1063.6	1012.8
11.66	11.07	7.6	1063.8	1013.0
11.67	11.06	7.59	1064.5	1012.8
11.68	11.05	7.58	1064.4	1013.1
11.69	11.05	7.58	1064.4	1013.2
11.7	11.04	7.58	1064.0	1013.2
11.71	11.06	7.58	1064.4	1013.1
11.72	11.06	7.58	1064.8	1013.2
11.73	11.06	7.58	1064.8	1013.1
11.74	11.06	7.57	1064.5	1012.9
11.75	11.06	7.57	1065.2	1013.2
11.76	11.06	7.57	1065.2	1012.9
11.77	11.06	7.57	1065.1	1013.2
11.78	11.05	7.56	1065.0	1013.3
11.79	11.05	7.55	1065.3	1013.2
11.8	11.04	7.55	1065.8	1013.5
11.81	11.06	7.55	1066.0	1013.4
11.82	11.06	7.55	1066.5	1013.6
11.83	11.06	7.55	1066.1	1013.6
11.84	11.07	7.55	1066.5	1013.7
11.85	11.07	7.55	1066.3	1013.8
11.86	11.06	7.53	1066.5	1014.4
11.87	11.06	7.54	1066.1	1013.9
11.88	11.05	7.53	1066.6	1014.3
11.89	11.06	7.53	1066.4	1013.9
11.9	11.06	7.53	1066.9	1014.3
11.91	11.06	7.52	1066.5	1014.1
11.92	11.05	7.52	1066.8	1014.2
11.93	11.05	7.51	1066.9	1014.3
11.94	11.06	7.52	1067.1	1014.5
11.95	11.07	7.52	1067.1	1014.4
11.96	11.05	7.51	1066.9	1014.5
11.97	11.06	7.51	1067.5	1014.6
11.98	11.06	7.51	1067.5	1014.7
11.99	11.05	7.5	1067.8	1014.7
12.0	11.07	7.5	1066.8	1014.8
12.01	11.06	7.5	1067.4	1014.6
12.02	11.06	7.5	1067.9	1015.0
12.03	11.06	7.49	1067.5	1015.1
12.04	11.06	7.48	1068.1	1015.2
12.05	11.05	7.48	1068.1	1014.9
12.06	11.06	7.48	1068.9	1015.2
12.07	11.05	7.48	1068.6	1014.9
12.08	11.06	7.48	1069.2	1015.0
12.09	11.05	7.47	1068.2	1014.9
12.1	11.07	7.48	1069.2	1015.2
12.11	11.06	7.47	1068.8	1014.9
12.12	11.05	7.46	1069.6	1015.1
12.13	11.05	7.47	1068.6	1014.9
12.14	11.06	7.46	1069.3	1015.2
12.15	11.06	7.46	1069.3	1014.8
12.16	11.06	7.46	1069.9	1015.3
12.17	11.06	7.46	1069.6	1015.4
12.18	11.06	7.45	1069.8	1014.9
12.19	11.06	7.45	1069.8	1015.0
12.2	11.07	7.45	1069.7	1015.0
12.21	11.06	7.45	1069.7	1015.2
12.22	11.06	7.44	1069.4	1015.2
12.23	11.07	7.45	1070.3	1015.1
12.24	11.07	7.44	1070.5	1015.2
12.25	11.05	7.43	1070.7	1015.1
12.26	11.06	7.43	1070.4	1015.4
12.27	11.06	7.43	1071.1	1015.4
12.28	11.07	7.43	1070.9	1015.4
12.29	11.06	7.42	1070.9	1015.5
12.3	11.06	7.43	1070.4	1015.7
12.31	11.06	7.42	1070.3	1015.8
12.32	11.05	7.41	1071.3	1016.0
12.33	11.07	7.42	1070.8	1015.7
12.34	11.07	7.41	1071.6	1016.4
12.35	11.06	7.41	1070.7	1016.1
12.36	11.06	7.41	1072.0	1016.1
12.37	11.06	7.4	1071.7	1016.1
12.38	11.06	7.4	1071.8	1016.3
12.39	11.07	7.4	1071.3	1016.1
12.4	11.06	7.4	1071.9	1016.2
12.41	11.06	7.4	1072.2	1015.9
12.42	11.06	7.39	1072.4	1016.2
12.43	11.06	7.39	1072.3	1016.0
12.44	11.06	7.39	1072.3	1016.1
12.45	11.05	7.38	1072.8	1016.2
12.46	11.06	7.39	1072.8	1016.3
12.47	11.07	7.38	1073.1	1016.5
12.48	11.06	7.38	1072.4	1016.6
12.49	11.07	7.38	1072.5	1016.5
12.5	11.05	7.37	1073.4	1016.7
12.51	11.07	7.37	1073.1	1016.4
12.52	11.06	7.37	1073.1	1016.8
12.53	11.06	7.36	1072.8	1016.6
12.54	11.06	7.36	1073.4	1016.8
12.55	11.06	7.36	1073.3	1016.6
12.56	11.05	7.35	1073.4	1016.8
12.57	11.07	7.36	1073.6	1016.8
12.58	11.06	7.35	1073.8	1016.9
12.59	11.07	7.36	1073.5	1017.0
12.6	11.05	7.35	1073.9	1017.1
12.61	11.07	7.35	1073.6	1016.9
12.62	11.07	7.34	1074.4	1017.0
12.63	11.05	7.34	1073.9	1016.8
12.64	11.06	7.34	1074.3	1017.2
12.65	11.05	7.33	1074.3	1017.0
12.66	11.06	7.33	1074.4	1017.2
12.67	11.06	7.33	1074.8	1017.0
12.68	11.07	7.33	1074.8	1017.1
12.69	11.05	7.32	1075.1	1017.2
12.7	11.06	7.33	1074.3	1017.2
12.71	11.05	7.32	1075.1	1017.2
12.72	11.06	7.32	1075.1	1017.6
12.73	11.05	7.31	1075.1	1017.6
12.74	11.05	7.31	1075.0	1017.6
12.75	11.06	7.32	1075.0	1017.5
12.76	11.06	7.31	1075.3	1017.7
12.77	11.06	7.31	1075.3	1017.7
12.78	11.05	7.3	1074.6	1017.8
12.79	11.06	7.31	1075.0	1017.8
12.8	11.07	7.3	1075.5	1017.7
12.81	11.06	7.3	1075.4	1017.8
12.82	11.06	7.3	1075.6	1017.8
12.83	11.05	7.29	1076.1	1017.8
12.84	11.06	7.29	1076.3	1017.9
12.85	11.05	7.29	1076.4	1018.1
12.86	11.07	7.29	1076.6	1018.2
12.87	11.05	7.28	1075.3	1018.0
12.88	11.07	7.29	1076.8	1018.1
12.89	11.05	7.27	1076.9	1018.0
12.9	11.07	7.28	1077.1	1018.2
12.91	11.05	7.27	1077.0	1018.0
12.92	11.06	7.27	1076.6	1018.4
12.93	11.06	7.27	1077.2	1018.3
12.94	11.06	7.27	1077.2	1018.1
12.95	11.06	7.27	1077.7	1018.3
12.96	11.07	7.27	1077.1	1018.3
12.97	11.06	7.26	1077.9	1018.3
12.98	11.06	7.26	1077.6	1018.4
12.99	11.06	7.26	1077.6	1018.2
13.0	11.05	7.25	1077.6	1018.5
13.01	11.07	7.26	1077.6	1018.5
13.02	11.05	7.24	1078.1	1018.7
13.03	11.07	7.25	1077.0	1018.4
13.04	11.05	7.24	1078.1	1018.8
13.05	11.07	7.25	1077.5	1018.3
13.06	11.06	7.24	1078.5	1018.4
13.07	11.05	7.24	1078.2	1018.5
13.08	11.06	7.24	1078.7	1018.6
13.09	11.08	7.24	1078.0	1018.7
13.1	11.06	7.23	1078.6	1018.8
13.11	11.07	7.23	1078.7	1018.5
13.12	11.06	7.23	1078.9	1018.8
13.13	11.06	7.22	1078.8	1018.6
13.14	11.07	7.23	1079.2	1018.9
13.15	11.06	7.22	1079.3	1018.9
13.16	11.06	7.22	1079.3	1019.1
13.17	11.06	7.22	1079.2	1018.8
13.18	11.05	7.21	1079.0	1018.8
13.19	11.06	7.21	1078.9	1018.8
13.2	11.05	7.21	1079.2	1019.1
13.21	11.06	7.2	1079.4	1018.8
13.22	11.06	7.21	1079.3	1019.2
13.23	11.05	7.2	1079.9	1019.0
13.24	11.06	7.2	1080.4	1019.1
13.25	11.07	7.2	1080.0	1019.0
13.26	11.05	7.19	1079.8	1019.1
13.27	11.06	7.19	1080.4	1018.9
13.28	11.06	7.19	1080.5	1019.2
13.29	11.07	7.19	1080.7	1019.0
13.3	11.06	7.19	1080.8	1019.2
13.31	11.07	7.19	1080.4	1019.2
13.32	11.07	7.19	1081.1	1019.2
13.33	11.06	7.18	1080.8	1019.2
13.34	11.06	7.18	1080.8	1019.2
13.35	11.06	7.18	1080.6	1018.8
13.36	11.05	7.17	1081.3	1019.6
13.37	11.07	7.18	1081.3	1019.2
13.38	11.06	7.17	1081.6	1019.3
13.39	11.07	7.17	1080.8	1019.3
13.4	11.06	7.16	1081.0	1019.5
13.41	11.05	7.16	1081.6	1019.4
13.42	11.06	7.16	1081.2	1019.5
13.43	11.06	7.16	1081.0	1019.5
13.44	11.06	7.15	1081.6	1019.5
13.45	11.06	7.16	1081.9	1019.4
13.46	11.07	7.16	1082.0	1019.6
13.47	11.06	7.15	1081.7	1019.5
13.48	11.06	7.15	1081.3	1019.5
13.49	11.06	7.14	1082.6	1019.6
13.5	11.07	7.15	1082.4	1019.5
13.51	11.05	7.14	1082.6	1019.6
13.52	11.06	7.14	1082.2	1019.6
13.53	11.07	7.15	1082.2	1019.6
13.54	11.05	7.13	1082.9	1019.9
13.55	11.06	7.14	1082.8	1020.0
13.56	11.05	7.12	1083.2	1019.7
13.57	11.06	7.13	1082.9	1019.9
13.58	11.07	7.13	1083.2	1020.0
13.59	11.05	7.12	1083.3	1019.9
13.6	11.07	7.13	1083.0	1020.1
13.61	11.05	7.12	1082.7	1020.0
13.62	11.06	7.12	1083.2	1020.0
13.63	11.07	7.13	1083.2	1019.8
13.64	11.06	7.12	1083.2	1020.2
13.65	11.06	7.12	1083.3	1020.2
13.66	11.08	7.12	1083.2	1020.2
13.67	11.06	7.11	1084.0	1019.8
13.68	11.06	7.11	1084.0	1020.2
13.69	11.07	7.11	1083.8	1020.1
13.7	11.06	7.1	1083.6	1020.0
13.71	11.07	7.11	1084.2	1020.2
13.72	11.06	7.1	1084.4	1020.2
13.73	11.06	7.1	1083.9	1020.3
13.74	11.07	7.1	1084.0	1020.5
13.75	11.06	7.09	1084.4	1020.6
13.76	11.05	7.09	1085.0	1020.3
13.77	11.06	7.09	1084.5	1020.5
13.78	11.07	7.09	1084.6	1020.4
13.79	11.06	7.08	1084.2	1020.3
13.8	11.06	7.08	1084.9	1020.3
13.81	11.08	7.09	1085.0	1020.4
13.82	11.06	7.08	1085.0	1020.5
13.83	11.05	7.08	1084.9	1020.6
13.84	11.07	7.08	1085.7	1020.7
13.85	11.06	7.07	1085.4	1020.8
13.86	11.05	7.07	1085.6	1020.6
13.87	11.07	7.07	1085.2	1020.6
13.88	11.06	7.07	1085.8	1020.8
13.89	11.06	7.06	1085.4	1020.7
13.9	11.05	7.06	1085.8	1021.0
13.91	11.06	7.06	1085.7	1020.8
13.92	11.05	7.06	1085.6	1021.2
13.93	11.06	7.05	1086.1	1021.1
13.94	11.06	7.06	1085.4	1021.0
13.95	11.05	7.05	1086.4	1020.8
13.96	11.06	7.05	1085.9	1020.6
13.97	11.07	7.06	1086.3	1020.7
13.98	11.05	7.05	1086.0	1020.7
13.99	11.06	7.05	1085.9	1020.7
14.0	11.06	7.05	1086.2	1020.7
14.01	11.07	7.04	1086.3	1020.8
14.02	11.05	7.04	1086.2	1020.6
14.03	11.06	7.04	1087.2	1020.7
14.04	11.07	7.04	1086.7	1020.8
14.05	11.07	7.03	1086.8	1020.8
14.06	11.06	7.03	1087.5	1020.9
14.07	11.06	7.03	1087.2	1021.1
14.08	11.06	7.03	1086.7	1021.2
14.09	11.06	7.03	1087.4	1021.0
14.1	11.06	7.03	1087.7	1021.0
14.11	11.06	7.02	1087.2	1020.9
14.12	11.07	7.02	1087.6	1020.8
14.13	11.05	7.02	1087.3	1020.9
14.14	11.06	7.01	1088.5	1020.8
14.15	11.05	7.01	1088.0	1020.6
14.16	11.06	7.01	1088.0	1020.7
14.17	11.06	7.01	1087.6	1020.8
14.18	11.06	7.0	1088.2	1020.8
14.19	11.05	7.0	1088.0	1020.6
14.2	11.06	7.0	1088.5	1020.9
14.21	11.05	7.0	1088.7	1020.6
14.22	11.07	7.0	1088.4	1021.0
14.23	11.06	7.0	1088.5	1020.8
14.24	11.05	6.99	1088.5	1020.9
14.25	11.05	7.0	1088.8	1021.2
14.26	11.07	7.0	1088.4	1021.2
14.27	11.06	7.0	1089.1	1021.1
14.28	11.05	6.99	1089.4	1021.3
14.29	11.04	6.98	1088.8	1021.2
14.3	11.06	6.99	1089.2	1021.2
14.31	11.06	6.99	1089.2	1021.1
14.32	11.08	6.99	1089.3	1020.8
14.33	11.07	6.99	1089.0	1021.3
14.34	11.06	6.98	1089.4	1021.2
14.35	11.05	6.97	1089.6	1021.3
14.36	11.05	6.97	1089.5	1021.4
14.37	11.05	6.97	1089.9	1021.6
14.38	11.07	6.98	1090.3	1021.7
14.39	11.07	6.98	1089.6	1021.6
14.4	11.06	6.97	1090.5	1021.6
14.41	11.06	6.96	1090.0	1021.4
14.42	11.05	6.96	1090.4	1021.7
14.43	11.06	6.97	1090.1	1021.7
14.44	11.07	6.96	1090.4	1021.5
14.45	11.07	6.97	1091.0	1021.8
14.46	11.07	6.96	1090.9	1021.7
14.47	11.05	6.95	1090.8	1022.0
14.48	11.04	6.95	1090.8	1021.6
14.49	11.05	6.95	1090.8	1021.5
14.5	11.06	6.95	1090.6	1021.6
14.51	11.07	6.96	1091.1	1021.6
14.52	11.06	6.95	1090.4	1021.7
14.53	11.06	6.94	1091.1	1021.7
14.54	11.05	6.93	1091.4	1022.0
14.55	11.06	6.94	1091.4	1021.9
14.56	11.06	6.94	1091.0	1021.9
14.57	11.07	6.94	1091.8	1022.0
14.58	11.07	6.94	1091.6	1021.8
14.59	11.07	6.94	1091.2	1021.8
14.6	11.06	6.93	1091.5	1022.0
14.61	11.05	6.93	1091.6	1021.8
14.62	11.04	6.92	1092.2	1021.7
14.63	11.06	6.93	1092.1	1022.0
14.64	11.07	6.93	1092.2	1022.1
14.65	11.06	6.92	1091.6	1022.1
14.66	11.05	6.92	1092.0	1022.2
14.67	11.06	6.92	1092.3	1022.1
14.68	11.06	6.92	1092.3	1022.3
14.69	11.07	6.92	1092.3	1022.3
14.7	11.05	6.91	1092.6	1022.5
14.71	11.05	6.91	1092.8	1022.4
14.72	11.05	6.91	1092.5	1022.4
14.73	11.04	6.9	1093.1	1022.5
14.74	11.06	6.91	1092.5	1022.5
14.75	11.06	6.91	1093.0	1022.3
14.76	11.06	6.91	1093.0	1022.4
14.77	11.06	6.91	1093.3	1022.5
14.78	11.05	6.9	1092.6	1022.4
14.79	11.05	6.89	1093.1	1022.6
14.8	11.06	6.89	1093.3	1022.4
14.81	11.04	6.88	1093.5	1022.4
14.82	11.05	6.89	1093.5	1022.6
14.83	11.05	6.89	1093.6	1022.4
14.84	11.06	6.89	1093.6	1022.6
14.85	11.06	6.89	1093.9	1022.7
14.86	11.07	6.89	1093.7	1022.4
14.87	11.07	6.89	1093.6	1022.5
14.88	11.07	6.89	1093.7	1022.6
14.89	11.07	6.88	1093.9	1022.7
14.9	11.08	6.89	1094.6	1022.8
14.91	11.06	6.88	1093.6	1022.9
14.92	11.07	6.88	1094.2	1022.6
14.93	11.06	6.87	1094.6	1022.8
14.94	11.07	6.87	1093.8	1022.7
14.95	11.07	6.87	1093.6	1022.7
14.96	11.05	6.87	1094.0	1022.8
14.97	11.06	6.87	1094.7	1022.8
14.98	11.07	6.87	1094.8	1022.8
14.99	11.06	6.87	1094.1	1022.8
15.0	11.07	6.86	1094.7	1022.6
15.01	11.07	6.87	1095.3	1022.9
15.02	11.07	6.86	1095.3	1023.0
15.03	11.07	6.87	1095.1	1022.5
15.04	11.07	6.86	1095.1	1022.7
15.05	11.07	6.86	1095.5	1022.9
15.06	11.07	6.85	1095.6	1022.8
15.07	11.06	6.86	1096.0	1022.7
15.08	11.07	6.85	1095.5	1023.1
15.09	11.07	6.85	1095.7	1022.6
15.1	11.06	6.84	1095.9	1023.0
15.11	11.06	6.85	1096.2	1023.0
15.12	11.06	6.84	1096.5	1023.1
15.13	11.06	6.84	1095.9	1022.9
15.14	11.06	6.84	1096.6	1023.0
15.15	11.06	6.83	1096.0	1023.0
15.16	11.06	6.83	1096.8	1023.3
15.17	11.06	6.83	1096.0	1023.0
15.18	11.06	6.83	1097.3	1023.2
15.19	11.06	6.83	1096.6	1022.8
15.2	11.06	6.83	1096.5	1023.3
15.21	11.07	6.83	1096.2	1022.9
15.22	11.06	6.82	1096.7	1022.9
15.23	11.07	6.83	1097.4	1023.1
15.24	11.06	6.82	1097.3	1023.4
15.25	11.06	6.82	1097.0	1023.2
15.26	11.06	6.82	1096.8	1023.4
15.27	11.06	6.82	1097.7	1023.7
15.28	11.05	6.82	1097.4	1023.5
15.29	11.07	6.82	1098.0	1023.5
15.3	11.07	6.82	1097.2	1023.6
15.31	11.08	6.82	1097.9	1023.2
15.32	11.07	6.81	1098.3	1023.1
15.33	11.07	6.81	1097.9	1023.1
15.34	11.07	6.81	1098.1	1023.2
15.35	11.08	6.81	1097.5	1022.9
15.36	11.06	6.81	1098.5	1023.0
15.37	11.07	6.8	1098.4	1023.4
15.38	11.06	6.8	1098.5	1023.2
15.39	11.08	6.8	1097.9	1023.1
15.4	11.06	6.79	1098.3	1023.2
15.41	11.05	6.79	1098.7	1023.2
15.42	11.05	6.79	1098.3	1023.4
15.43	11.06	6.79	1098.3	1023.6
15.44	11.06	6.79	1098.5	1023.3
15.45	11.04	6.78	1099.1	1023.4
15.46	11.05	6.78	1098.6	1023.4
15.47	11.05	6.78	1098.8	1023.3
15.48	11.04	6.77	1098.9	1023.3
15.49	11.05	6.78	1099.1	1023.5
15.5	11.06	6.78	1099.3	1023.5
15.51	11.06	6.78	1099.4	1023.7
15.52	11.06	6.78	1099.0	1023.5
15.53	11.07	6.78	1099.4	1023.6
15.54	11.07	6.78	1099.9	1023.6
15.55	11.06	6.77	1099.5	1023.5
15.56	11.06	6.77	1099.4	1023.6
15.57	11.05	6.76	1099.4	1023.5
15.58	11.05	6.76	1099.9	1024.0
15.59	11.05	6.76	1099.4	1023.6
15.6	11.05	6.76	1099.6	1023.7
15.61	11.05	6.75	1099.4	1023.6
15.62	11.05	6.76	1099.9	1023.8
15.63	11.05	6.75	1099.5	1023.9
15.64	11.06	6.75	1098.9	1023.7
15.65	11.06	6.75	1098.7	1023.9
15.66	11.06	6.75	1099.3	1023.9
15.67	11.06	6.75	1099.5	1023.8
15.68	11.06	6.75	1099.6	1023.8
15.69	11.06	6.75	1099.4	1024.0
15.7	11.07	6.75	1100.1	1023.7
15.71	11.07	6.75	1100.1	1023.9
15.72	11.08	6.75	1100.0	1024.0
15.73	11.08	6.75	1099.7	1023.8
15.74	11.07	6.75	1100.0	1023.6
15.75	11.07	6.75	1100.4	1023.9
15.76	11.08	6.75	1100.8	1023.8
15.77	11.08	6.75	1100.8	1023.8
15.78	11.08	6.74	1100.8	1023.9
15.79	11.06	6.73	1101.2	1023.7
15.8	11.06	6.73	1101.2	1023.8
15.81	11.06	6.73	1101.4	1024.0
15.82	11.06	6.73	1101.2	1024.0
15.83	11.06	6.73	1101.8	1023.9
15.84	11.06	6.73	1101.6	1024.0
15.85	11.07	6.73	1101.3	1023.9
15.86	11.06	6.73	1101.2	1024.1
15.87	11.06	6.72	1101.7	1024.0
15.88	11.08	6.73	1101.8	1024.0
15.89	11.07	6.72	1102.1	1024.0
15.9	11.05	6.72	1101.7	1023.9
15.91	11.06	6.71	1101.5	1023.8
15.92	11.06	6.71	1102.4	1024.0
15.93	11.05	6.7	1102.2	1024.1
15.94	11.06	6.71	1102.1	1024.1
15.95	11.04	6.7	1101.9	1024.1
15.96	11.06	6.71	1101.9	1023.9
15.97	11.05	6.7	1102.1	1024.1
15.98	11.04	6.7	1102.1	1023.9
15.99	11.05	6.7	1102.1	1024.1
16.0	11.05	6.69	1102.3	1024.1
16.01	11.05	6.7	1102.5	1023.9
16.02	11.05	6.69	1102.3	1024.2
16.03	11.06	6.69	1102.3	1024.0
16.04	11.05	6.69	1102.0	1024.1
16.05	11.04	6.69	1102.6	1023.9
16.06	11.05	6.69	1102.5	1023.7
16.07	11.07	6.69	1102.3	1023.8
16.08	11.06	6.69	1102.2	1023.9
16.09	11.08	6.7	1102.4	1023.9
16.1	11.07	6.69	1102.9	1024.0
16.11	11.08	6.7	1102.6	1023.9
16.12	11.07	6.69	1102.1	1023.8
16.13	11.07	6.69	1102.9	1024.0
16.14	11.07	6.69	1103.3	1024.0
16.15	11.07	6.69	1102.9	1024.0
16.16	11.07	6.68	1102.8	1024.0
16.17	11.07	6.68	1103.0	1024.2
16.18	11.07	6.68	1103.7	1024.0
16.19	11.07	6.68	1103.2	1024.3
16.2	11.07	6.68	1103.6	1023.8
16.21	11.04	6.67	1103.4	1023.8
16.22	11.07	6.67	1104.0	1024.0
16.23	11.05	6.67	1103.7	1024.2
16.24	11.05	6.66	1104.2	1024.2
16.25	11.05	6.66	1103.3	1024.1
16.26	11.05	6.66	1104.0	1024.0
16.27	11.05	6.66	1104.0	1024.1
16.28	11.05	6.66	1104.5	1024.2
16.29	11.04	6.65	1104.2	1024.2
16.3	11.06	6.66	1104.5	1024.3
16.31	11.04	6.65	1104.3	1024.2
16.32	11.06	6.65	1104.7	1024.1
16.33	11.05	6.65	1104.4	1024.0
16.34	11.06	6.65	1104.5	1024.2
16.35	11.07	6.66	1105.3	1024.1
16.36	11.05	6.64	1105.3	1024.1
16.37	11.05	6.64	1105.0	1024.3
16.38	11.06	6.64	1104.9	1024.3
16.39	11.05	6.64	1105.2	1024.1
16.4	11.06	6.65	1105.0	1024.1
16.41	11.06	6.64	1104.9	1023.9
16.42	11.05	6.64	1105.0	1024.3
16.43	11.05	6.64	1104.9	1024.4
16.44	11.05	6.63	1106.0	1024.1
16.45	11.05	6.63	1105.5	1024.1
16.46	11.06	6.63	1105.9	1024.5
16.47	11.05	6.63	1105.1	1024.3
16.48	11.08	6.64	1105.9	1024.5
16.49	11.06	6.63	1105.4	1024.0
16.5	11.08	6.64	1105.8	1024.2
16.51	11.06	6.63	1105.6	1024.5
16.52	11.06	6.63	1106.0	1024.3
16.53	11.05	6.62	1106.0	1024.4
16.54	11.04	6.61	1105.8	1024.4
16.55	11.06	6.62	1105.0	1024.6
16.56	11.07	6.63	1105.7	1024.5
16.57	11.05	6.62	1105.7	1024.4
16.58	11.06	6.62	1106.5	1024.7
16.59	11.05	6.61	1106.6	1024.6
16.6	11.05	6.61	1105.9	1024.6
16.61	11.06	6.61	1106.6	1024.4
16.62	11.06	6.61	1107.3	1024.4
16.63	11.07	6.62	1106.9	1024.5
16.64	11.07	6.61	1106.5	1024.5
16.65	11.06	6.61	1106.3	1024.4
16.66	11.06	6.61	1107.0	1024.4
16.67	11.05	6.6	1107.0	1024.5
16.68	11.06	6.6	1107.4	1024.6
16.69	11.05	6.6	1106.6	1024.6
16.7	11.06	6.6	1107.6	1024.4
16.71	11.07	6.61	1107.6	1024.5
16.72	11.06	6.6	1107.9	1024.5
16.73	11.08	6.6	1106.9	1024.4
16.74	11.07	6.6	1107.7	1024.5
16.75	11.07	6.6	1107.9	1024.5
16.76	11.06	6.6	1107.2	1024.4
16.77	11.05	6.59	1107.4	1024.5
16.78	11.05	6.59	1107.8	1024.6
16.79	11.06	6.59	1108.1	1024.7
16.8	11.06	6.59	1108.0	1024.4
16.81	11.07	6.59	1107.7	1024.3
16.82	11.07	6.59	1107.6	1024.6
16.83	11.06	6.59	1108.1	1024.7
16.84	11.07	6.59	1108.6	1024.6
16.85	11.06	6.58	1108.6	1024.6
16.86	11.07	6.59	1108.3	1024.6
16.87	11.08	6.58	1108.8	1024.6
16.88	11.07	6.58	1109.1	1024.7
16.89	11.06	6.57	1109.2	1024.8
16.9	11.06	6.57	1109.0	1024.6
16.91	11.05	6.57	1109.0	1024.6
16.92	11.06	6.57	1109.6	1024.6
16.93	11.05	6.57	1109.5	1024.7
16.94	11.05	6.56	1108.9	1024.8
16.95	11.05	6.56	1109.1	1024.7
16.96	11.06	6.56	1109.4	1024.8
16.97	11.06	6.57	1109.6	1024.8
16.98	11.06	6.57	1109.4	1024.8
16.99	11.07	6.57	1109.0	1024.8
17.0	11.06	6.56	1109.4	1025.0
17.01	11.05	6.55	1108.9	1025.0
17.02	11.06	6.55	1109.6	1024.9
17.03	11.05	6.55	1109.3	1025.2
17.04	11.05	6.55	1110.0	1025.3
17.05	11.05	6.55	1109.9	1025.1
17.06	11.05	6.55	1109.6	1025.0
17.07	11.06	6.55	1109.9	1025.2
17.08	11.06	6.55	1109.6	1025.4
17.09	11.06	6.55	1110.0	1025.3
17.1	11.07	6.56	1109.9	1025.3
17.11	11.06	6.55	1109.8	1025.3
17.12	11.08	6.55	1109.4	1025.2
17.13	11.06	6.55	1110.5	1025.3
17.14	11.07	6.54	1110.3	1025.3
17.15	11.05	6.54	1110.7	1025.3
17.16	11.06	6.54	1110.4	1025.4
17.17	11.04	6.53	1110.0	1025.2
17.18	11.06	6.54	1110.8	1025.4
17.19	11.05	6.54	1110.9	1025.2
17.2	11.06	6.54	1110.7	1025.2
17.21	11.06	6.54	1110.6	1025.4
17.22	11.07	6.54	1111.0	1025.4
17.23	11.07	6.54	1110.5	1025.2
17.24	11.06	6.53	1110.7	1025.3
17.25	11.04	6.52	1110.8	1025.3
17.26	11.05	6.52	1111.3	1025.2
17.27	11.04	6.52	1111.7	1025.4
17.28	11.06	6.53	1111.3	1025.4
17.29	11.06	6.52	1111.7	1025.3
17.3	11.07	6.53	1111.2	1025.4
17.31	11.07	6.53	1111.8	1025.5
17.32	11.06	6.52	1111.5	1025.4
17.33	11.06	6.52	1111.4	1025.5
17.34	11.06	6.52	1111.7	1025.3
17.35	11.07	6.52	1111.8	1025.3
17.36	11.05	6.51	1112.1	1025.2
17.37	11.05	6.51	1111.9	1025.6
17.38	11.05	6.5	1112.1	1025.4
17.39	11.05	6.51	1111.7	1025.3
17.4	11.05	6.5	1112.5	1025.4
17.41	11.06	6.51	1112.2	1025.3
17.42	11.06	6.51	1112.3	1025.4
17.43	11.08	6.51	1111.9	1025.3
17.44	11.06	6.51	1112.6	1025.4
17.45	11.05	6.5	1112.0	1025.3
17.46	11.05	6.5	1112.2	1025.2
17.47	11.07	6.5	1112.0	1025.4
17.48	11.06	6.5	1112.6	1025.3
17.49	11.06	6.5	1112.8	1025.3
17.5	11.06	6.5	1112.5	1025.2
17.51	11.06	6.49	1112.8	1025.3
17.52	11.06	6.49	1112.5	1025.0
17.53	11.06	6.49	1113.6	1025.6
17.54	11.08	6.5	1113.6	1025.4
17.55	11.06	6.49	1113.2	1025.5
17.56	11.04	6.48	1112.8	1025.4
17.57	11.06	6.49	1113.7	1025.5
17.58	11.06	6.49	1114.0	1025.2
17.59	11.07	6.49	1113.5	1025.3
17.6	11.07	6.49	1112.7	1025.1
17.61	11.06	6.48	1113.5	1025.3
17.62	11.06	6.48	1114.0	1025.4
17.63	11.06	6.48	1113.8	1025.1
17.64	11.06	6.48	1113.9	1025.2
17.65	11.05	6.48	1113.6	1025.1
17.66	11.05	6.47	1113.9	1025.4
17.67	11.05	6.48	1114.0	1025.1
17.68	11.07	6.48	1114.2	1025.6
17.69	11.06	6.48	1113.9	1025.5
17.7	11.05	6.47	1114.6	1025.2
17.71	11.04	6.46	1114.5	1025.2
17.72	11.08	6.48	1114.2	1025.2
17.73	11.05	6.47	1113.7	1025.4
17.74	11.05	6.46	1113.8	1025.5
17.75	11.05	6.46	1114.7	1025.5
17.76	11.06	6.47	1114.8	1025.6
17.77	11.07	6.47	1114.2	1025.3
17.78	11.05	6.46	1114.0	1025.4
17.79	11.04	6.46	1114.5	1025.7
17.8	11.07	6.47	1114.4	1025.6
17.81	11.06	6.46	1114.8	1025.7
17.82	11.05	6.45	1114.3	1025.3
17.83	11.05	6.45	1114.8	1025.4
17.84	11.07	6.46	1114.8	1025.6
17.85	11.07	6.46	1114.8	1025.5
17.86	11.06	6.45	1115.2	1025.4
17.87	11.05	6.45	1115.2	1025.6
17.88	11.06	6.45	1114.9	1025.5
17.89	11.04	6.44	1114.3	1025.6
17.9	11.07	6.45	1114.9	1025.3
17.91	11.07	6.45	1114.8	1025.5
17.92	11.06	6.44	1115.7	1025.6
17.93	11.05	6.44	1115.7	1025.6
17.94	11.05	6.43	1115.8	1025.4
17.95	11.05	6.44	1115.6	1025.6
17.96	11.06	6.44	1115.8	1025.5
17.97	11.06	6.44	1116.0	1025.3
17.98	11.05	6.44	1116.0	1025.4
17.99	11.05	6.43	1116.1	1025.7
18.0	11.06	6.44	1115.4	1025.7
18.01	11.06	6.44	1116.3	1025.6
18.02	11.05	6.43	1116.2	1025.7
18.03	11.06	6.43	1116.1	1025.8
18.04	11.05	6.43	1116.0	1025.9
18.05	11.06	6.43	1115.9	1025.5
18.06	11.07	6.44	1116.1	1025.5
18.07	11.07	6.43	1116.3	1025.4
18.08	11.05	6.43	1116.2	1025.5
18.09	11.06	6.43	1115.2	1025.7
18.1	11.05	6.42	1116.3	1025.6
18.11	11.05	6.42	1116.1	1025.8
18.12	11.04	6.41	1117.2	1025.6
18.13	11.05	6.42	1116.3	1025.5
18.14	11.06	6.42	1117.2	1025.8
18.15	11.07	6.43	1116.6	1025.9
18.16	11.06	6.42	1116.7	1025.7
18.17	11.07	6.42	1116.5	1025.6
18.18	11.05	6.41	1116.9	1025.7
18.19	11.06	6.41	1116.8	1025.6
18.2	11.07	6.42	1116.6	1025.7
18.21	11.07	6.42	1116.4	1025.6
18.22	11.06	6.41	1116.9	1025.8
18.23	11.07	6.41	1117.6	1025.8
18.24	11.05	6.41	1117.1	1026.1
18.25	11.05	6.4	1117.0	1026.2
18.26	11.06	6.41	1117.0	1026.0
18.27	11.08	6.42	1117.1	1026.0
18.28	11.06	6.4	1117.0	1025.8
18.29	11.05	6.4	1117.1	1025.6
18.3	11.06	6.4	1117.2	1026.1
18.31	11.07	6.41	1117.4	1025.8
18.32	11.06	6.41	1118.0	1025.8
18.33	11.05	6.4	1117.8	1025.7
18.34	11.06	6.4	1117.9	1025.5
18.35	11.06	6.4	1117.8	1025.7
18.36	11.06	6.4	1118.7	1025.6
18.37	11.07	6.4	1118.0	1025.9
18.38	11.06	6.39	1117.9	1025.9
18.39	11.05	6.39	1118.5	1025.6
18.4	11.05	6.39	1119.0	1025.7
18.41	11.06	6.39	1118.5	1025.6
18.42	11.07	6.4	1118.6	1025.5
18.43	11.04	6.38	1118.6	1025.6
18.44	11.05	6.38	1119.0	1025.8
18.45	11.06	6.39	1119.1	1025.6
18.46	11.07	6.39	1119.2	1025.5
18.47	11.06	6.38	1118.9	1025.7
18.48	11.05	6.38	1118.2	1025.8
18.49	11.05	6.38	1119.1	1025.7
18.5	11.05	6.38	1119.3	1025.7
18.51	11.05	6.37	1118.6	1025.6
18.52	11.07	6.38	1119.4	1025.8
18.53	11.06	6.38	1119.0	1025.7
18.54	11.04	6.37	1119.0	1025.8
18.55	11.05	6.37	1119.8	1025.9
18.56	11.05	6.37	1119.1	1025.8
18.57	11.04	6.37	1119.2	1026.0
18.58	11.06	6.37	1119.3	1026.0
18.59	11.06	6.37	1118.9	1025.7
18.6	11.07	6.37	1118.9	1025.8
18.61	11.06	6.37	1119.0	1025.8
18.62	11.07	6.37	1119.6	1025.8
18.63	11.05	6.36	1119.4	1025.8
18.64	11.07	6.36	1119.4	1025.6
18.65	11.05	6.36	1119.0	1025.9
18.66	11.05	6.36	1119.9	1025.9
18.67	11.07	6.36	1119.7	1025.9
18.68	11.07	6.37	1120.0	1025.8
18.69	11.06	6.36	1119.7	1026.0
18.7	11.05	6.35	1120.0	1025.7
18.71	11.06	6.36	1120.0	1025.8
18.72	11.06	6.36	1120.3	1026.0
18.73	11.06	6.35	1119.8	1025.9
18.74	11.04	6.35	1119.9	1025.8
18.75	11.05	6.35	1120.2	1025.8
18.76	11.04	6.35	1120.5	1025.7
18.77	11.04	6.34	1120.9	1025.7
18.78	11.06	6.35	1120.4	1025.9
18.79	11.07	6.35	1120.4	1026.0
18.8	11.06	6.35	1120.9	1025.9
18.81	11.05	6.34	1120.5	1026.1
18.82	11.05	6.34	1120.3	1026.0
18.83	11.06	6.35	1121.0	1026.0
18.84	11.05	6.34	1121.0	1025.7
18.85	11.05	6.34	1120.9	1026.0
18.86	11.06	6.34	1120.9	1026.0
18.87	11.05	6.33	1120.6	1026.0
18.88	11.05	6.34	1121.7	1026.0
18.89	11.07	6.34	1121.2	1026.0
18.9	11.06	6.34	1121.4	1025.9
18.91	11.05	6.33	1120.7	1025.6
18.92	11.05	6.33	1121.7	1025.6
18.93	11.06	6.34	1121.3	1025.9
18.94	11.06	6.33	1121.2	1025.8
18.95	11.06	6.33	1121.0	1026.0
18.96	11.06	6.33	1121.6	1025.7
18.97	11.06	6.33	1121.3	1026.0
18.98	11.04	6.32	1121.3	1025.9
18.99	11.05	6.33	1121.9	1025.8
19.0	11.07	6.33	1121.8	1025.7
19.01	11.06	6.33	1121.7	1025.7
19.02	11.06	6.33	1121.8	1026.0
19.03	11.05	6.32	1121.5	1025.7
19.04	11.05	6.32	1121.2	1026.0
19.05	11.04	6.32	1121.7	1025.8
19.06	11.05	6.32	1121.8	1025.8
19.07	11.05	6.31	1122.6	1026.0
19.08	11.05	6.32	1121.7	1025.8
19.09	11.06	6.31	1122.0	1025.9
19.1	11.05	6.31	1121.7	1025.9
19.11	11.06	6.32	1121.3	1025.9
19.12	11.07	6.32	1121.5	1026.1
19.13	11.05	6.31	1121.6	1025.9
19.14	11.07	6.32	1122.1	1025.7
19.15	11.05	6.31	1122.0	1026.0
19.16	11.05	6.31	1122.6	1025.8
19.17	11.04	6.31	1121.5	1026.0
19.18	11.05	6.3	1122.8	1025.9
19.19	11.05	6.3	1122.3	1025.9
19.2	11.07	6.31	1122.8	1025.7
19.21	11.05	6.3	1122.2	1025.9
19.22	11.06	6.31	1122.7	1026.0
19.23	11.06	6.31	1122.4	1025.9
19.24	11.06	6.31	1122.1	1026.0
19.25	11.06	6.31	1122.1	1025.8
19.26	11.05	6.3	1122.8	1025.6
19.27	11.04	6.29	1123.3	1025.9
19.28	11.05	6.29	1123.0	1025.8
19.29	11.04	6.29	1122.5	1025.7
19.3	11.05	6.29	1122.6	1025.7
19.31	11.06	6.3	1123.7	1025.9
19.32	11.06	6.29	1123.2	1025.8
19.33	11.06	6.29	1123.2	1025.8
19.34	11.06	6.29	1122.5	1026.1
19.35	11.05	6.29	1123.4	1025.8
19.36	11.06	6.29	1123.5	1025.8
19.37	11.06	6.29	1122.8	1025.5
19.38	11.07	6.29	1123.0	1025.8
19.39	11.07	6.29	1123.2	1025.8
19.4	11.06	6.29	1123.4	1025.8
19.41	11.07	6.29	1123.6	1026.0
19.42	11.07	6.29	1123.5	1026.0
19.43	11.05	6.28	1123.2	1025.7
19.44	11.04	6.28	1123.9	1025.8
19.45	11.06	6.28	1123.6	1025.8
19.46	11.05	6.28	1123.9	1025.9
19.47	11.06	6.28	1123.3	1025.7
19.48	11.06	6.28	1124.5	1025.9
19.49	11.06	6.28	1123.6	1025.5
19.5	11.06	6.28	1124.4	1026.1
19.51	11.07	6.28	1124.3	1025.8
19.52	11.05	6.28	1124.0	1025.8
19.53	11.07	6.28	1124.6	1025.7
19.54	11.04	6.27	1125.0	1025.9
19.55	11.05	6.27	1124.8	1026.1
19.56	11.06	6.27	1123.9	1025.9
19.57	11.04	6.26	1125.0	1026.0
19.58	11.05	6.27	1125.2	1025.6
19.59	11.06	6.27	1124.6	1026.0
19.6	11.05	6.27	1124.0	1026.0
19.61	11.07	6.27	1124.3	1026.0
19.62	11.06	6.27	1124.7	1025.9
19.63	11.06	6.26	1124.2	1025.7
19.64	11.05	6.26	1124.5	1025.7
19.65	11.06	6.26	1124.8	1026.0
19.66	11.04	6.25	1124.9	1026.0
19.67	11.06	6.25	1124.7	1026.0
19.68	11.04	6.25	1124.4	1025.6
19.69	11.04	6.25	1124.4	1025.8
19.7	11.04	6.25	1125.0	1025.6
19.71	11.04	6.25	1124.9	1025.8
19.72	11.06	6.25	1124.8	1025.6
19.73	11.04	6.25	1124.4	1025.7
19.74	11.05	6.25	1125.6	1025.8
19.75	11.07	6.26	1125.0	1025.8
19.76	11.08	6.26	1125.0	1025.9
19.77	11.06	6.25	1124.8	1025.8
19.78	11.06	6.26	1124.6	1025.6
19.79	11.06	6.25	1124.9	1025.9
19.8	11.06	6.25	1125.2	1025.7
19.81	11.06	6.25	1124.7	1025.6
19.82	11.06	6.25	1125.0	1025.6
19.83	11.07	6.25	1125.3	1025.7
19.84	11.07	6.25	1125.6	1025.8
19.85	11.06	6.24	1125.5	1025.5
19.86	11.06	6.24	1125.3	1025.9
19.87	11.05	6.24	1125.5	1025.8
19.88	11.06	6.24	1125.5	1025.8
19.89	11.04	6.24	1125.9	1025.7
19.9	11.06	6.24	1125.2	1025.6
19.91	11.05	6.24	1125.8	1025.5
19.92	11.05	6.23	1125.8	1025.7
19.93	11.05	6.24	1125.5	1025.8
19.94	11.05	6.23	1125.6	1025.4
19.95	11.05	6.23	1126.2	1025.6
19.96	11.05	6.23	1125.2	1025.6
19.97	11.05	6.23	1125.8	1025.5
19.98	11.06	6.23	1126.4	1025.7
19.99	11.04	6.22	1125.7	1025.5
20.0	11.05	6.23	1126.5	1025.7
20.01	11.03	6.22	1126.2	1025.2
20.02	11.05	6.22	1126.2	1025.8
20.03	11.05	6.23	1125.9	1025.6
20.04	11.04	6.21	1126.7	1025.5
20.05	11.05	6.22	1126.4	1025.5
20.06	11.06	6.22	1125.7	1025.5
20.07	11.05	6.22	1125.9	1025.4
20.08	11.07	6.22	1125.8	1025.4
20.09	11.05	6.22	1126.7	1025.9
20.1	11.07	6.23	1126.4	1025.6
20.11	11.06	6.22	1126.4	1025.7
20.12	11.07	6.22	1125.8	1025.5
20.13	11.06	6.22	1125.8	1025.5
20.14	11.05	6.21	1126.4	1025.4
20.15	11.06	6.22	1126.8	1025.7
20.16	11.07	6.22	1125.9	1025.8
20.17	11.06	6.22	1126.7	1025.6
20.18	11.08	6.22	1126.7	1025.5
20.19	11.05	6.21	1126.1	1025.7
20.2	11.05	6.22	1126.2	1025.6
20.21	11.06	6.21	1127.1	1025.4
20.22	11.07	6.21	1127.0	1025.2
20.23	11.06	6.21	1126.8	1025.4
20.24	11.06	6.21	1126.3	1025.4
20.25	11.07	6.21	1127.3	1025.6
20.26	11.04	6.2	1127.7	1025.5
20.27	11.05	6.2	1127.2	1025.3
20.28	11.04	6.2	1126.7	1025.4
20.29	11.06	6.2	1126.5	1025.4
20.3	11.06	6.21	1127.3	1025.3
20.31	11.05	6.2	1127.2	1025.4
20.32	11.04	6.2	1127.5	1025.4
20.33	11.05	6.2	1127.1	1025.6
20.34	11.06	6.2	1127.4	1025.6
20.35	11.05	6.19	1127.6	1025.7
20.36	11.05	6.2	1127.6	1025.6
20.37	11.06	6.2	1126.6	1025.5
20.38	11.05	6.2	1127.4	1025.6
20.39	11.05	6.19	1127.3	1025.6
20.4	11.05	6.19	1128.0	1025.4
20.41	11.06	6.19	1127.8	1025.5
20.42	11.06	6.19	1127.1	1025.3
20.43	11.06	6.19	1128.2	1025.4
20.44	11.07	6.2	1128.2	1025.3
20.45	11.05	6.19	1127.4	1025.4
20.46	11.05	6.19	1127.5	1025.5
20.47	11.05	6.18	1128.1	1025.5
20.48	11.05	6.18	1128.0	1025.3
20.49	11.06	6.19	1127.9	1025.4
20.5	11.05	6.18	1127.9	1025.2
20.51	11.05	6.18	1127.8	1025.5
20.52	11.06	6.18	1127.8	1025.2
20.53	11.06	6.18	1127.7	1025.2
20.54	11.05	6.18	1127.9	1025.6
20.55	11.03	6.17	1127.8	1025.4
20.56	11.06	6.18	1128.6	1025.2
20.57	11.05	6.18	1128.3	1025.2
20.58	11.05	6.18	1127.9	1025.2
20.59	11.05	6.18	1128.1	1025.6
20.6	11.05	6.17	1128.4	1025.2
20.61	11.03	6.17	1128.2	1025.2
20.62	11.05	6.17	1128.6	1025.3
20.63	11.05	6.17	1128.4	1025.4
20.64	11.07	6.18	1128.2	1025.5
20.65	11.06	6.17	1128.5	1025.1
20.66	11.04	6.16	1128.7	1025.2
20.67	11.06	6.17	1128.5	1025.2
20.68	11.06	6.17	1127.6	1025.3
20.69	11.05	6.17	1128.3	1025.3
20.7	11.05	6.17	1128.3	1025.4
20.71	11.05	6.16	1128.8	1025.4
20.72	11.06	6.17	1128.4	1025.4
20.73	11.05	6.17	1128.7	1025.2
20.74	11.06	6.16	1128.8	1025.3
20.75	11.05	6.16	1128.9	1025.3
20.76	11.06	6.16	1128.8	1025.4
20.77	11.07	6.17	1128.7	1025.5
20.78	11.05	6.16	1128.9	1025.2
20.79	11.05	6.16	1128.7	1025.3
20.8	11.06	6.16	1129.0	1025.4
20.81	11.05	6.16	1128.5	1025.4
20.82	11.05	6.15	1129.2	1025.6
20.83	11.06	6.16	1128.9	1025.4
20.84	11.04	6.15	1129.4	1025.4
20.85	11.06	6.15	1129.1	1025.4
20.86	11.05	6.15	1128.8	1025.2
20.87	11.07	6.16	1129.2	1025.4
20.88	11.06	6.16	1128.7	1025.0
20.89	11.05	6.14	1128.7	1025.5
20.9	11.04	6.15	1129.1	1025.4
20.91	11.05	6.15	1129.8	1025.1
20.92	11.06	6.15	1129.8	1025.2
20.93	11.07	6.15	1129.5	1025.5
20.94	11.05	6.14	1129.2	1025.6
20.95	11.05	6.14	1129.7	1025.4
20.96	11.05	6.15	1129.3	1025.4
20.97	11.07	6.15	1129.7	1025.2
20.98	11.05	6.14	1129.2	1025.2
20.99	11.05	6.14	1130.0	1025.2
21.0	11.05	6.14	1129.8	1025.4
21.01	11.05	6.14	1129.4	1025.5
21.02	11.05	6.14	1129.6	1025.2
21.03	11.04	6.14	1129.6	1025.3
21.04	11.06	6.14	1129.2	1025.1
21.05	11.06	6.14	1129.9	1025.3
21.06	11.05	6.13	1129.8	1025.4
21.07	11.05	6.14	1129.7	1025.4
21.08	11.05	6.14	1129.6	1025.3
21.09	11.06	6.13	1129.9	1025.3
21.1	11.04	6.13	1130.4	1025.2
21.11	11.06	6.13	1129.5	1025.2
21.12	11.05	6.13	1130.2	1025.4
21.13	11.06	6.13	1129.6	1025.3
21.14	11.04	6.13	1129.7	1025.4
21.15	11.06	6.13	1129.3	1025.2
21.16	11.06	6.13	1130.3	1025.4
21.17	11.07	6.13	1129.6	1025.1
21.18	11.06	6.12	1130.1	1025.0
21.19	11.05	6.12	1130.4	1025.1
21.2	11.06	6.13	1130.2	1025.6
21.21	11.05	6.13	1130.2	1025.2
21.22	11.05	6.12	1130.1	1025.4
21.23	11.06	6.13	1130.4	1025.1
21.24	11.06	6.12	1129.7	1025.2
21.25	11.05	6.12	1130.2	1025.1
21.26	11.06	6.12	1130.5	1024.8
21.27	11.06	6.13	1130.2	1024.8
21.28	11.06	6.12	1130.0	1024.7
21.29	11.07	6.12	1130.6	1024.7
21.3	11.06	6.12	1130.6	1024.6
21.31	11.04	6.12	1130.5	1024.9
21.32	11.05	6.11	1130.2	1024.6
21.33	11.05	6.12	1130.5	1024.9
21.34	11.06	6.12	1130.4	1024.8
21.35	11.04	6.11	1130.7	1024.6
21.36	11.05	6.11	1131.0	1024.7
21.37	11.06	6.12	1130.2	1024.8
21.38	11.06	6.11	1130.9	1025.0
21.39	11.06	6.11	1130.6	1024.8
21.4	11.07	6.11	1130.9	1024.7
21.41	11.04	6.11	1130.2	1025.0
21.42	11.07	6.11	1131.0	1025.0
21.43	11.05	6.11	1131.6	1024.8
21.44	11.04	6.1	1131.0	1024.7
21.45	11.06	6.11	1131.3	1024.9
21.46	11.06	6.11	1130.6	1024.8
21.47	11.05	6.1	1131.6	1024.6
21.48	11.07	6.11	1131.0	1025.0
21.49	11.06	6.11	1131.0	1024.7
21.5	11.05	6.1	1130.8	1024.8
21.51	11.06	6.1	1131.0	1025.0
21.52	11.07	6.1	1131.0	1024.8
21.53	11.06	6.1	1131.0	1024.9
21.54	11.05	6.09	1130.9	1024.9
21.55	11.06	6.1	1131.5	1024.9
21.56	11.06	6.1	1130.9	1024.7
21.57	11.06	6.1	1130.6	1024.9
21.58	11.05	6.1	1131.2	1025.0
21.59	11.06	6.1	1130.9	1024.8
21.6	11.06	6.1	1131.6	1024.6
21.61	11.05	6.09	1130.6	1024.6
21.62	11.06	6.1	1131.2	1024.9
21.63	11.06	6.1	1130.5	1025.0
21.64	11.04	6.09	1131.8	1024.8
21.65	11.05	6.09	1131.3	1024.8
21.66	11.05	6.09	1131.4	1024.6
21.67	11.06	6.08	1131.1	1024.9
21.68	11.05	6.09	1130.8	1024.9
21.69	11.06	6.09	1131.6	1024.6
21.7	11.06	6.09	1131.3	1024.6
21.71	11.05	6.09	1131.3	1024.7
21.72	11.06	6.09	1131.2	1024.6
21.73	11.07	6.09	1131.9	1024.5
21.74	11.04	6.08	1131.5	1024.8
21.75	11.05	6.09	1131.5	1024.8
21.76	11.06	6.09	1131.7	1025.0
21.77	11.04	6.07	1131.8	1024.6
21.78	11.05	6.08	1132.0	1024.8
21.79	11.06	6.08	1132.0	1025.0
21.8	11.04	6.08	1131.7	1024.7
21.81	11.05	6.08	1131.6	1024.7
21.82	11.06	6.08	1132.6	1024.5
21.83	11.05	6.07	1131.9	1024.6
21.84	11.05	6.07	1132.6	1024.6
21.85	11.05	6.08	1132.1	1024.4
21.86	11.06	6.08	1132.2	1024.6
21.87	11.05	6.07	1132.4	1024.7
21.88	11.06	6.07	1132.4	1024.4
21.89	11.05	6.07	1132.1	1024.5
21.9	11.05	6.07	1132.5	1024.5
21.91	11.06	6.07	1132.0	1024.7
21.92	11.06	6.07	1132.4	1024.5
21.93	11.04	6.07	1132.4	1024.4
21.94	11.06	6.07	1132.1	1024.5
21.95	11.06	6.07	1132.9	1024.2
21.96	11.06	6.06	1132.0	1024.6
21.97	11.06	6.07	1131.6	1024.1
21.98	11.06	6.07	1131.8	1024.5
21.99	11.05	6.07	1132.0	1024.3
22.0	11.06	6.07	1131.9	1024.5
22.01	11.06	6.07	1133.1	1024.6
22.02	11.07	6.07	1132.1	1024.6
22.03	11.04	6.06	1132.4	1024.6
22.04	11.06	6.07	1132.6	1024.3
22.05	11.06	6.06	1132.5	1024.3
22.06	11.05	6.06	1131.8	1024.4
22.07	11.05	6.06	1132.3	1024.1
22.08	11.06	6.06	1132.2	1024.1
22.09	11.05	6.05	1132.2	1024.1
22.1	11.05	6.06	1131.7	1024.0
22.11	11.05	6.05	1131.7	1024.1
22.12	11.06	6.06	1132.6	1024.1
22.13	11.05	6.05	1132.2	1024.1
22.14	11.06	6.06	1132.4	1024.1
22.15	11.04	6.05	1132.1	1024.1
22.16	11.06	6.05	1133.1	1024.0
22.17	11.05	6.05	1132.8	1024.2
22.18	11.06	6.05	1132.8	1024.0
22.19	11.04	6.05	1132.3	1024.1
22.2	11.06	6.05	1132.0	1024.0
22.21	11.06	6.05	1133.4	1024.0
22.22	11.05	6.05	1132.8	1024.2
22.23	11.07	6.06	1133.0	1024.0
22.24	11.05	6.04	1132.5	1024.2
22.25	11.06	6.05	1132.5	1024.0
22.26	11.05	6.04	1132.7	1023.9
22.27	11.06	6.04	1132.5	1024.0
22.28	11.05	6.05	1132.2	1023.9
22.29	11.06	6.05	1132.4	1023.9
22.3	11.05	6.04	1132.3	1023.7
22.31	11.04	6.04	1132.9	1023.8
22.32	11.05	6.04	1133.0	1023.8
22.33	11.06	6.04	1132.7	1023.9
22.34	11.05	6.04	1133.1	1023.9
22.35	11.06	6.04	1132.6	1023.9
22.36	11.06	6.04	1133.0	1023.8
22.37	11.06	6.04	1132.1	1023.8
22.38	11.05	6.04	1132.9	1023.6
22.39	11.07	6.04	1132.2	1023.8
22.4	11.05	6.04	1132.6	1023.5
22.41	11.06	6.03	1132.6	1024.0
22.42	11.06	6.04	1133.0	1023.7
22.43	11.07	6.04	1133.2	1023.7
22.44	11.06	6.03	1132.7	1024.1
22.45	11.07	6.04	1132.4	1023.8
22.46	11.06	6.03	1132.2	1024.2
22.47	11.06	6.03	1133.2	1024.1
22.48	11.06	6.03	1132.8	1024.0
22.49	11.06	6.03	1132.1	1024.0
22.5	11.05	6.03	1132.2	1023.9
22.51	11.05	6.03	1132.9	1023.8
22.52	11.05	6.03	1132.4	1023.9
22.53	11.05	6.03	1132.9	1024.0
22.54	11.06	6.03	1133.0	1023.6
22.55	11.05	6.03	1133.0	1023.8
22.56	11.05	6.02	1132.9	1023.9
22.57	11.06	6.03	1132.5	1023.8
22.58	11.05	6.02	1132.8	1023.8
22.59	11.07	6.03	1132.5	1023.8
22.6	11.05	6.02	1133.5	1023.8
22.61	11.06	6.02	1133.0	1023.8
22.62	11.06	6.02	1132.7	1023.8
22.63	11.06	6.02	1132.7	1023.8
22.64	11.07	6.02	1132.9	1023.8
22.65	11.06	6.02	1133.0	1024.1
22.66	11.06	6.02	1133.5	1023.7
22.67	11.05	6.02	1133.3	1023.9
22.68	11.07	6.02	1132.2	1023.7
22.69	11.07	6.02	1133.1	1023.9
22.7	11.07	6.02	1133.1	1023.8
22.71	11.05	6.02	1132.9	1023.5
22.72	11.06	6.01	1132.8	1023.7
22.73	11.06	6.01	1133.7	1023.5
22.74	11.07	6.02	1133.6	1023.7
22.75	11.06	6.01	1133.7	1023.6
22.76	11.06	6.01	1133.1	1023.5
22.77	11.06	6.01	1134.0	1023.7
22.78	11.06	6.01	1133.9	1023.8
22.79	11.06	6.01	1133.8	1023.6
22.8	11.05	6.01	1133.2	1023.6
22.81	11.06	6.01	1133.5	1023.5
22.82	11.06	6.01	1133.9	1023.6
22.83	11.05	6.0	1133.4	1023.5
22.84	11.06	6.0	1134.0	1023.5
22.85	11.05	6.01	1133.6	1023.6
22.86	11.06	6.01	1133.7	1023.7
22.87	11.05	6.0	1134.0	1023.5
22.88	11.05	6.0	1134.1	1023.3
22.89	11.05	6.0	1133.6	1023.4
22.9	11.05	6.0	1133.9	1023.3
22.91	11.05	6.0	1134.1	1023.2
22.92	11.06	6.0	1133.9	1023.5
22.93	11.06	6.0	1133.9	1023.4
22.94	11.05	6.0	1133.6	1023.5
22.95	11.06	6.0	1133.6	1023.5
22.96	11.05	5.99	1133.7	1023.2
22.97	11.07	6.0	1133.8	1023.3
22.98	11.05	6.0	1133.5	1023.4
22.99	11.06	6.0	1133.7	1023.5
23.0	11.05	5.99	1133.7	1023.2
23.01	11.06	5.99	1134.0	1023.4
23.02	11.05	5.99	1134.0	1023.3
23.03	11.07	6.0	1133.4	1023.2
23.04	11.05	5.99	1134.0	1023.1
23.05	11.05	5.99	1133.9	1023.4
23.06	11.06	5.99	1133.9	1023.2
23.07	11.06	5.99	1133.8	1023.3
23.08	11.06	5.99	1133.8	1023.2
23.09	11.06	5.99	1133.9	1023.2
23.1	11.06	5.99	1134.2	1023.5
23.11	11.06	5.99	1133.8	1023.1
23.12	11.05	5.98	1134.1	1023.1
23.13	11.06	5.99	1133.9	1023.2
23.14	11.06	5.99	1133.8	1023.1
23.15	11.06	5.98	1134.0	1023.2
23.16	11.07	5.99	1133.8	1023.4
23.17	11.06	5.98	1133.8	1023.2
23.18	11.06	5.99	1133.8	1023.4
23.19	11.05	5.98	1134.1	1023.2
23.2	11.06	5.98	1133.5	1022.9
23.21	11.06	5.98	1133.9	1023.2
23.22	11.06	5.98	1134.3	1022.9
23.23	11.06	5.98	1134.0	1023.1
23.24	11.06	5.98	1133.4	1023.2
23.25	11.06	5.98	1134.1	1023.2
23.26	11.06	5.98	1134.8	1023.0
23.27	11.05	5.98	1134.1	1022.9
23.28	11.06	5.98	1134.3	1023.1
23.29	11.06	5.98	1133.9	1022.8
23.3	11.06	5.98	1134.2	1022.7
23.31	11.05	5.97	1134.2	1022.7
23.32	11.05	5.97	1134.3	1022.7
23.33	11.05	5.97	1133.8	1022.8
23.34	11.06	5.98	1134.2	1022.7
23.35	11.05	5.97	1134.3	1022.8
23.36	11.06	5.97	1134.5	1022.7
23.37	11.06	5.97	1134.3	1022.6
23.38	11.07	5.97	1134.6	1023.0
23.39	11.05	5.97	1134.1	1022.6
23.4	11.06	5.97	1134.3	1022.8
23.41	11.06	5.97	1134.2	1022.6
23.42	11.05	5.97	1134.3	1022.5
23.43	11.05	5.96	1134.2	1022.8
23.44	11.07	5.97	1134.2	1022.7
23.45	11.05	5.97	1134.2	1022.8
23.46	11.06	5.97	1133.9	1022.3
23.47	11.05	5.96	1134.4	1022.6
23.48	11.06	5.96	1134.1	1022.4
23.49	11.05	5.96	1134.0	1022.6
23.5	11.06	5.96	1134.1	1022.7
23.51	11.05	5.96	1134.0	1022.4
23.52	11.06	5.96	1134.4	1022.7
23.53	11.06	5.96	1134.2	1022.5
23.54	11.07	5.96	1134.0	1022.8
23.55	11.06	5.96	1133.6	1022.5
23.56	11.06	5.96	1134.3	1022.5
23.57	11.05	5.96	1134.4	1022.4
23.58	11.06	5.95	1134.4	1022.5
23.59	11.06	5.96	1133.7	1022.6
23.6	11.05	5.96	1134.0	1022.5
23.61	11.05	5.95	1134.6	1022.4
23.62	11.06	5.96	1134.3	1022.6
23.63	11.04	5.95	1134.5	1022.3
23.64	11.06	5.95	1134.1	1022.5
23.65	11.05	5.95	1134.2	1022.3
23.66	11.05	5.95	1134.5	1022.3
23.67	11.06	5.95	1134.5	1022.4
23.68	11.06	5.95	1134.0	1022.3
23.69	11.06	5.95	1134.4	1022.6
23.7	11.06	5.95	1134.6	1022.4
23.71	11.07	5.95	1134.1	1022.1
23.72	11.06	5.95	1134.3	1022.3
23.73	11.06	5.95	1134.2	1022.3
23.74	11.05	5.95	1134.6	1022.5
23.75	11.05	5.94	1134.2	1022.0
23.76	11.05	5.94	1134.7	1022.2
23.77	11.06	5.95	1134.2	1022.3
23.78	11.06	5.95	1134.3	1022.3
23.79	11.06	5.94	1134.4	1022.3
23.8	11.05	5.94	1134.3	1022.2
23.81	11.06	5.94	1134.1	1022.3
23.82	11.06	5.94	1134.2	1022.1
23.83	11.06	5.94	1134.3	1022.1
23.84	11.05	5.94	1134.5	1021.9
23.85	11.06	5.94	1134.0	1022.0
23.86	11.06	5.94	1134.4	1022.2
23.87	11.06	5.94	1134.5	1022.2
23.88	11.06	5.94	1134.6	1022.2
23.89	11.06	5.94	1134.6	1022.1
23.9	11.06	5.94	1134.2	1022.1
23.91	11.07	5.94	1134.4	1022.0
23.92	11.05	5.93	1134.4	1022.2
23.93	11.06	5.94	1133.9	1022.0
23.94	11.06	5.94	1133.7	1022.3
23.95	11.07	5.94	1134.4	1022.1
23.96	11.06	5.93	1134.3	1022.2
23.97	11.06	5.93	1134.6	1022.1
23.98	11.06	5.93	1134.0	1021.8
23.99	11.06	5.93	1134.4	1021.8
24.0	11.06	5.93	1134.5	1021.8
24.01	11.06	5.93	1134.4	1021.9
24.02	11.05	5.93	1134.3	1021.9
24.03	11.06	5.93	1134.3	1021.8
24.04	11.05	5.93	1134.8	1021.7
24.05	11.06	5.93	1134.0	1021.8
24.06	11.06	5.93	1134.2	1021.9
24.07	11.06	5.93	1133.9	1021.8
24.08	11.05	5.92	1134.5	1021.7
24.09	11.06	5.93	1134.2	1021.9
24.1	11.07	5.93	1134.2	1021.8
24.11	11.05	5.93	1134.0	1021.9
24.12	11.05	5.92	1134.6	1021.8
24.13	11.05	5.92	1134.7	1021.6
24.14	11.06	5.93	1134.4	1021.7
24.15	11.06	5.92	1134.0	1022.0
24.16	11.06	5.93	1134.1	1021.6
24.17	11.06	5.92	1134.7	1021.7
24.18	11.06	5.92	1134.9	1022.0
24.19	11.06	5.93	1134.7	1021.9
24.2	11.07	5.92	1134.4	1021.7
24.21	11.05	5.92	1134.7	1021.6
24.22	11.06	5.92	1134.4	1021.6
24.23	11.06	5.92	1134.3	1021.9
24.24	11.06	5.92	1134.1	1021.6
24.25	11.06	5.92	1134.6	1021.5
24.26	11.05	5.91	1134.7	1021.8
24.27	11.06	5.92	1134.6	1021.5
24.28	11.06	5.92	1134.0	1021.6
24.29	11.05	5.91	1134.5	1021.6
24.3	11.06	5.91	1134.7	1021.8
24.31	11.05	5.91	1134.6	1021.5
24.32	11.06	5.92	1134.8	1021.6
24.33	11.05	5.91	1134.1	1021.6
24.34	11.04	5.91	1134.3	1021.6
24.35	11.06	5.92	1134.7	1021.5
24.36	11.05	5.91	1134.2	1021.5
24.37	11.05	5.91	1134.1	1021.5
24.38	11.05	5.91	1135.2	1021.4
24.39	11.06	5.91	1134.8	1021.4
24.4	11.06	5.91	1134.3	1021.6
24.41	11.05	5.9	1134.0	1021.4
24.42	11.05	5.91	1134.6	1021.5
24.43	11.06	5.91	1134.2	1021.6
24.44	11.05	5.9	1134.2	1021.5
24.45	11.06	5.91	1134.3	1021.6
24.46	11.06	5.9	1133.8	1021.5
24.47	11.06	5.91	1134.5	1021.4
24.48	11.06	5.91	1134.3	1021.5
24.49	11.05	5.9	1134.7	1021.6
24.5	11.05	5.9	1134.6	1021.6
24.51	11.07	5.9	1134.6	1021.3
24.52	11.06	5.9	1134.5	1021.5
24.53	11.06	5.9	1134.7	1021.2
24.54	11.05	5.9	1134.3	1021.2
24.55	11.06	5.9	1134.3	1021.3
24.56	11.05	5.9	1134.8	1021.2
24.57	11.07	5.9	1134.5	1021.1
24.58	11.05	5.9	1134.6	1020.9
24.59	11.06	5.9	1134.7	1021.2
24.6	11.06	5.9	1134.7	1021.0
24.61	11.06	5.9	1135.0	1020.8
24.62	11.05	5.89	1134.9	1021.2
24.63	11.07	5.9	1134.1	1020.8
24.64	11.05	5.89	1134.4	1021.0
24.65	11.06	5.89	1134.4	1020.9
24.66	11.05	5.89	1134.7	1020.8
24.67	11.05	5.89	1134.7	1020.8
24.68	11.05	5.89	1134.9	1020.9
24.69	11.06	5.9	1134.5	1021.2
24.7	11.06	5.89	1134.5	1021.0
24.71	11.06	5.89	1134.8	1020.8
24.72	11.05	5.89	1134.8	1021.0
24.73	11.06	5.89	1134.9	1020.8
24.74	11.06	5.89	1134.8	1021.0
24.75	11.07	5.89	1134.8	1020.7
24.76	11.07	5.89	1134.3	1020.6
24.77	11.06	5.89	1135.0	1020.7
24.78	11.05	5.89	1134.4	1020.6
24.79	11.07	5.89	1134.7	1020.8
24.8	11.06	5.89	1134.4	1020.6
24.81	11.05	5.89	1134.3	1020.6
24.82	11.06	5.89	1134.6	1020.8
24.83	11.05	5.89	1134.4	1020.6
24.84	11.06	5.88	1134.7	1020.6
24.85	11.06	5.88	1134.7	1020.7
24.86	11.06	5.88	1134.6	1020.4
24.87	11.06	5.88	1134.9	1020.6
24.88	11.05	5.88	1134.3	1020.7
24.89	11.05	5.88	1134.2	1020.7
24.9	11.06	5.88	1134.9	1020.5
24.91	11.05	5.88	1134.7	1020.6
24.92	11.06	5.88	1134.9	1020.7
24.93	11.05	5.88	1134.3	1020.3
24.94	11.06	5.88	1134.7	1020.5
24.95	11.06	5.88	1134.8	1020.5
24.96	11.06	5.88	1134.7	1020.2
24.97	11.06	5.87	1134.5	1020.4
24.98	11.06	5.87	1134.8	1020.4
24.99	11.05	5.87	1134.7	1020.4
25.0	11.06	5.87	1134.5	1020.4
25.01	11.05	5.88	1134.4	1020.4
25.02	11.06	5.88	1134.3	1020.5
25.03	11.05	5.87	1134.6	1020.2
25.04	11.06	5.88	1134.6	1020.3
25.05	11.07	5.88	1134.8	1020.3
25.06	11.05	5.87	1134.4	1020.4
25.07	11.05	5.87	1134.9	1020.3
25.08	11.05	5.87	1134.5	1020.0
25.09	11.05	5.87	1134.9	1020.2
25.1	11.05	5.87	1134.9	1020.1
25.11	11.06	5.87	1134.8	1020.2
25.12	11.04	5.87	1134.3	1020.2
25.13	11.05	5.87	1134.6	1020.2
25.14	11.05	5.87	1134.6	1020.3
25.15	11.05	5.87	1134.2	1020.2
25.16	11.05	5.87	1134.7	1019.8
25.17	11.05	5.87	1134.2	1020.0
25.18	11.06	5.86	1134.1	1020.0
25.19	11.06	5.87	1133.8	1020.2
25.2	11.05	5.86	1134.6	1020.3
25.21	11.06	5.86	1134.1	1019.9
25.22	11.05	5.86	1133.9	1020.2
25.23	11.06	5.87	1133.9	1019.7
25.24	11.06	5.86	1134.2	1020.1
25.25	11.07	5.87	1134.2	1019.8
25.26	11.06	5.86	1134.7	1019.9
25.27	11.06	5.86	1134.2	1019.9
25.28	11.06	5.86	1134.0	1019.9
25.29	11.06	5.86	1134.2	1019.9
25.3	11.06	5.86	1134.1	1020.1
25.31	11.06	5.86	1134.2	1019.4
25.32	11.05	5.86	1134.3	1019.9
25.33	11.06	5.86	1134.6	1019.6
25.34	11.05	5.86	1134.6	1019.7
25.35	11.06	5.86	1134.6	1019.9
25.36	11.05	5.86	1133.8	1019.6
25.37	11.06	5.86	1134.4	1019.6
25.38	11.05	5.85	1134.3	1019.9
25.39	11.05	5.85	1134.5	1019.8
25.4	11.05	5.85	1133.6	1019.8
25.41	11.07	5.86	1134.2	1019.7
25.42	11.06	5.86	1134.5	1019.6
25.43	11.06	5.85	1134.0	1019.6
25.44	11.06	5.85	1134.2	1019.9
25.45	11.05	5.85	1133.8	1019.8
25.46	11.07	5.85	1134.2	1019.8
25.47	11.06	5.85	1134.3	1019.6
25.48	11.07	5.85	1134.1	1019.9
25.49	11.06	5.85	1133.9	1019.7
25.5	11.05	5.85	1134.0	1019.5
25.51	11.07	5.85	1134.2	1019.4
25.52	11.06	5.85	1134.3	1019.8
25.53	11.04	5.84	1134.0	1019.3
25.54	11.05	5.85	1134.3	1019.4
25.55	11.05	5.85	1134.5	1019.5
25.56	11.06	5.85	1133.9	1019.4
25.57	11.05	5.85	1133.8	1019.4
25.58	11.05	5.85	1134.0	1019.5
25.59	11.06	5.85	1134.5	1019.3
25.6	11.07	5.85	1134.4	1019.4
25.61	11.06	5.84	1134.1	1019.6
25.62	11.06	5.84	1134.1	1019.6
25.63	11.05	5.84	1134.2	1019.5
25.64	11.07	5.84	1134.4	1019.6
25.65	11.06	5.85	1134.6	1019.1
25.66	11.06	5.84	1133.7	1019.2
25.67	11.06	5.84	1134.6	1019.6
25.68	11.06	5.84	1134.5	1019.4
25.69	11.06	5.84	1134.3	1019.2
25.7	11.08	5.85	1133.8	1019.3
25.71	11.06	5.84	1134.2	1019.3
25.72	11.07	5.84	1134.1	1019.1
25.73	11.05	5.84	1134.2	1019.2
25.74	11.07	5.84	1134.4	1019.2
25.75	11.06	5.84	1134.5	1019.3
25.76	11.05	5.83	1134.5	1019.2
25.77	11.06	5.84	1134.2	1019.3
25.78	11.06	5.84	1134.3	1019.2
25.79	11.06	5.83	1133.9	1019.4
25.8	11.06	5.83	1134.5	1019.2
25.81	11.05	5.83	1134.3	1019.3
25.82	11.05	5.83	1134.1	1019.2
25.83	11.06	5.84	1134.1	1019.2
25.84	11.05	5.83	1134.4	1019.4
25.85	11.06	5.83	1134.4	1019.1
25.86	11.05	5.83	1134.2	1019.1
25.87	11.05	5.83	1134.1	1019.1
25.88	11.05	5.83	1134.0	1019.1
25.89	11.05	5.83	1134.4	1019.4
25.9	11.05	5.83	1134.2	1019.1
25.91	11.05	5.83	1134.5	1019.1
25.92	11.06	5.83	1133.6	1018.9
25.93	11.07	5.83	1134.2	1019.0
25.94	11.05	5.82	1133.7	1019.2
25.95	11.06	5.83	1133.9	1018.8
25.96	11.05	5.83	1133.8	1019.2
25.97	11.06	5.82	1133.7	1018.8
25.98	11.06	5.83	1134.5	1018.8
25.99	11.06	5.82	1133.7	1018.8
26.0	11.06	5.82	1133.8	1019.0
26.01	11.07	5.83	1133.4	1019.2
26.02	11.06	5.83	1133.9	1018.8
26.03	11.06	5.82	1134.1	1019.0
26.04	11.05	5.82	1134.0	1019.0
26.05	11.06	5.82	1133.5	1018.9
26.06	11.06	5.82	1134.0	1018.9
26.07	11.06	5.82	1134.1	1019.1
26.08	11.05	5.82	1133.9	1018.7
26.09	11.06	5.82	1134.0	1018.7
26.1	11.05	5.82	1133.4	1018.7
26.11	11.06	5.82	1133.8	1018.7
26.12	11.06	5.82	1134.3	1019.1
26.13	11.06	5.82	1133.1	1018.6
26.14	11.06	5.82	1133.3	1018.9
26.15	11.05	5.82	1133.7	1018.7
26.16	11.06	5.82	1134.1	1018.8
26.17	11.06	5.82	1134.0	1018.6
26.18	11.06	5.82	1133.8	1019.1
26.19	11.06	5.82	1133.9	1018.8
26.2	11.05	5.81	1134.2	1018.7
26.21	11.06	5.82	1134.1	1018.6
26.22	11.07	5.82	1133.5	1018.5
26.23	11.06	5.82	1133.6	1018.4
26.24	11.06	5.81	1134.2	1018.5
26.25	11.06	5.81	1133.7	1018.4
26.26	11.07	5.81	1133.6	1018.7
26.27	11.04	5.81	1132.9	1018.7
26.28	11.07	5.82	1133.6	1018.8
26.29	11.06	5.81	1133.4	1018.6
26.3	11.06	5.81	1133.8	1018.4
26.31	11.05	5.81	1133.5	1018.5
26.32	11.06	5.81	1133.7	1018.5
26.33	11.06	5.81	1134.2	1018.4
26.34	11.07	5.81	1133.8	1018.4
26.35	11.06	5.81	1133.6	1018.5
26.36	11.06	5.81	1133.5	1018.6
26.37	11.06	5.81	1133.9	1018.4
26.38	11.06	5.81	1133.7	1018.2
26.39	11.06	5.81	1134.5	1018.5
26.4	11.05	5.81	1133.2	1018.3
26.41	11.06	5.8	1134.1	1018.4
26.42	11.06	5.8	1133.5	1018.1
26.43	11.06	5.81	1133.5	1018.2
26.44	11.07	5.81	1133.1	1018.4
26.45	11.06	5.81	1133.7	1018.4
26.46	11.05	5.8	1133.4	1018.5
26.47	11.06	5.8	1133.3	1018.3
26.48	11.06	5.8	1133.0	1018.2
26.49	11.06	5.8	1133.2	1018.3
26.5	11.06	5.8	1133.7	1018.2
26.51	11.06	5.8	1133.9	1018.3
26.52	11.06	5.8	1133.7	1018.3
26.53	11.06	5.8	1133.4	1018.3
26.54	11.06	5.8	1134.0	1018.4
26.55	11.06	5.8	1133.6	1018.3
26.56	11.05	5.8	1133.8	1018.2
26.57	11.07	5.8	1133.3	1018.2
26.58	11.05	5.8	1133.4	1018.2
26.59	11.06	5.8	1134.1	1018.1
26.6	11.06	5.8	1133.5	1018.0
26.61	11.06	5.8	1133.6	1018.0
26.62	11.05	5.8	1133.4	1018.2
26.63	11.05	5.79	1133.7	1018.2
26.64	11.05	5.79	1133.6	1017.9
26.65	11.07	5.8	1133.9	1017.9
26.66	11.05	5.79	1132.9	1018.0
26.67	11.06	5.79	1133.6	1018.2
26.68	11.06	5.8	1133.5	1017.9
26.69	11.06	5.79	1133.7	1018.1
26.7	11.06	5.79	1133.4	1017.8
26.71	11.07	5.8	1133.4	1018.0
26.72	11.06	5.79	1132.5	1018.1
26.73	11.07	5.79	1132.6	1018.1
26.74	11.05	5.79	1133.5	1018.3
26.75	11.07	5.79	1132.8	1018.1
26.76	11.06	5.79	1133.2	1017.9
26.77	11.06	5.79	1132.9	1017.6
26.78	11.06	5.79	1133.0	1018.2
26.79	11.06	5.79	1132.4	1017.9
26.8	11.06	5.79	1133.6	1017.9
26.81	11.06	5.79	1132.6	1017.9
26.82	11.06	5.79	1133.2	1018.1
26.83	11.06	5.79	1132.8	1018.0
26.84	11.05	5.78	1132.6	1017.8
26.85	11.06	5.78	1133.2	1017.9
26.86	11.06	5.79	1132.8	1018.2
26.87	11.05	5.78	1132.5	1017.9
26.88	11.07	5.79	1132.1	1018.0
26.89	11.05	5.78	1133.5	1017.9
26.9	11.06	5.78	1133.5	1018.1
26.91	11.06	5.79	1133.1	1017.9
26.92	11.06	5.78	1132.6	1018.0
26.93	11.06	5.78	1133.6	1017.9
26.94	11.06	5.78	1133.4	1018.0
26.95	11.06	5.78	1132.8	1017.7
26.96	11.06	5.78	1132.7	1017.7
26.97	11.06	5.78	1133.1	1017.8
26.98	11.07	5.78	1132.9	1017.8
26.99	11.06	5.78	1132.7	1017.8
27.0	11.07	5.78	1132.7	1017.6
27.01	11.06	5.78	1132.6	1017.6
27.02	11.06	5.78	1133.3	1017.6
27.03	11.05	5.78	1132.8	1017.6
27.04	11.07	5.78	1133.0	1017.9
27.05	11.06	5.78	1132.5	1017.7
27.06	11.07	5.78	1133.6	1017.4
27.07	11.07	5.78	1132.7	1017.5
27.08	11.06	5.78	1133.1	1017.6
27.09	11.05	5.77	1132.2	1017.8
27.1	11.06	5.77	1132.6	1017.6
27.11	11.05	5.77	1133.3	1017.8
27.12	11.06	5.78	1132.7	1017.6
27.13	11.06	5.77	1133.4	1017.4
27.14	11.05	5.77	1132.2	1017.8
27.15	11.06	5.77	1132.7	1017.4
27.16	11.05	5.77	1132.6	1017.3
27.17	11.05	5.77	1133.1	1017.5
27.18	11.07	5.77	1131.9	1017.5
27.19	11.06	5.77	1133.0	1017.2
27.2	11.06	5.77	1133.4	1017.6
27.21	11.05	5.77	1132.4	1017.2
27.22	11.06	5.77	1131.6	1017.6
27.23	11.06	5.77	1132.4	1017.4
27.24	11.06	5.77	1132.9	1017.6
27.25	11.06	5.77	1132.8	1017.4
27.26	11.06	5.77	1132.7	1017.4
27.27	11.06	5.77	1132.1	1017.4
27.28	11.06	5.77	1132.3	1017.4
27.29	11.07	5.77	1132.7	1017.6
27.3	11.06	5.77	1132.6	1017.6
27.31	11.06	5.76	1131.5	1017.2
27.32	11.06	5.76	1132.5	1017.4
27.33	11.05	5.76	1132.6	1017.2
27.34	11.05	5.76	1132.8	1017.5
27.35	11.07	5.77	1132.8	1017.2
27.36	11.05	5.76	1132.5	1017.2
27.37	11.06	5.76	1133.0	1017.2
27.38	11.06	5.76	1132.4	1017.3
27.39	11.06	5.76	1132.6	1017.2
27.4	11.05	5.76	1132.7	1017.4
27.41	11.07	5.77	1133.2	1017.0
27.42	11.06	5.77	1133.0	1017.4
27.43	11.07	5.76	1133.4	1017.2
27.44	11.06	5.76	1132.9	1017.2
27.45	11.06	5.76	1132.7	1017.2
27.46	11.06	5.76	1132.4	1017.2
27.47	11.07	5.76	1133.2	1017.2
27.48	11.05	5.76	1132.9	1017.1
27.49	11.06	5.76	1132.4	1017.2
27.5	11.07	5.76	1132.6	1017.1
27.51	11.07	5.76	1132.1	1017.2
27.52	11.06	5.76	1132.0	1017.1
27.53	11.06	5.76	1132.0	1017.3
27.54	11.05	5.75	1132.8	1017.0
27.55	11.06	5.76	1132.3	1017.2
27.56	11.06	5.76	1133.0	1017.2
27.57	11.06	5.76	1132.0	1016.9
27.58	11.07	5.76	1132.9	1017.1
27.59	11.06	5.75	1132.4	1017.2
27.6	11.06	5.76	1131.9	1017.2
27.61	11.07	5.76	1131.4	1017.0
27.62	11.06	5.75	1132.6	1017.0
27.63	11.05	5.75	1131.9	1017.1
27.64	11.06	5.75	1131.8	1016.8
27.65	11.06	5.75	1132.0	1016.9
27.66	11.07	5.75	1132.1	1017.2
27.67	11.06	5.75	1132.4	1016.8
27.68	11.06	5.75	1132.4	1017.2
27.69	11.05	5.75	1132.0	1016.5
27.7	11.07	5.75	1131.5	1016.9
27.71	11.06	5.75	1132.1	1016.8
27.72	11.06	5.75	1131.7	1016.8
27.73	11.05	5.75	1131.3	1016.8
27.74	11.07	5.75	1131.2	1016.9
27.75	11.05	5.75	1132.1	1016.9
27.76	11.07	5.75	1132.8	1016.9
27.77	11.06	5.75	1132.1	1017.0
27.78	11.06	5.75	1131.8	1016.9
27.79	11.06	5.75	1131.6	1016.4
27.8	11.06	5.75	1132.2	1016.9
27.81	11.06	5.75	1131.9	1016.6
27.82	11.06	5.75	1132.0	1017.0
27.83	11.05	5.74	1131.6	1016.8
27.84	11.06	5.74	1131.7	1016.8
27.85	11.06	5.74	1131.4	1016.6
27.86	11.06	5.74	1131.5	1016.7
27.87	11.06	5.74	1131.3	1016.5
27.88	11.06	5.75	1131.8	1016.9
27.89	11.06	5.74	1131.6	1016.5
27.9	11.06	5.74	1131.8	1016.5
27.91	11.05	5.74	1131.5	1016.6
27.92	11.07	5.75	1131.8	1016.4
27.93	11.06	5.74	1132.1	1016.5
27.94	11.05	5.74	1131.6	1016.6
27.95	11.06	5.74	1131.5	1016.7
27.96	11.06	5.74	1131.5	1016.5
27.97	11.07	5.74	1131.5	1016.5
27.98	11.07	5.74	1131.6	1016.6
27.99	11.07	5.74	1131.9	1016.6
28.0	11.06	5.74	1131.3	1016.4
28.01	11.06	5.73	1131.8	1016.5
28.02	11.05	5.73	1131.8	1016.9
28.03	11.06	5.73	1131.8	1016.3
28.04	11.06	5.74	1131.9	1016.7
28.05	11.06	5.73	1131.8	1016.2
28.06	11.05	5.73	1132.2	1016.4
28.07	11.06	5.73	1131.6	1016.4
28.08	11.05	5.73	1131.9	1016.3
28.09	11.07	5.74	1131.3	1016.4
28.1	11.06	5.73	1132.0	1016.4
28.11	11.06	5.73	1131.8	1016.1
28.12	11.06	5.74	1131.8	1016.5
28.13	11.06	5.73	1130.9	1016.2
28.14	11.05	5.73	1131.8	1016.3
28.15	11.06	5.73	1131.9	1016.0
28.16	11.07	5.74	1131.8	1016.3
28.17	11.06	5.73	1131.0	1016.1
28.18	11.06	5.73	1131.0	1016.3
28.19	11.05	5.73	1131.4	1015.9
28.2	11.06	5.73	1131.6	1016.1
28.21	11.06	5.73	1131.2	1015.8
28.22	11.06	5.73	1131.2	1016.0
28.23	11.06	5.73	1131.9	1015.9
28.24	11.06	5.73	1131.2	1016.2
28.25	11.06	5.73	1132.1	1015.7
28.26	11.06	5.73	1131.0	1016.1
28.27	11.07	5.73	1131.6	1015.7
28.28	11.06	5.73	1131.4	1015.9
28.29	11.06	5.72	1131.3	1015.9
28.3	11.06	5.73	1131.2	1016.1
28.31	11.05	5.73	1130.4	1015.9
28.32	11.06	5.73	1131.0	1015.9
28.33	11.07	5.73	1130.7	1015.7
28.34	11.07	5.72	1130.5	1015.6
28.35	11.06	5.72	1130.7	1015.9
28.36	11.06	5.72	1130.9	1016.0
28.37	11.05	5.72	1130.3	1015.6
28.38	11.06	5.72	1130.8	1015.6
28.39	11.06	5.72	1130.4	1015.6
28.4	11.05	5.72	1131.4	1015.8
28.41	11.06	5.72	1130.7	1016.0
28.42	11.06	5.72	1131.0	1016.1
28.43	11.05	5.72	1130.8	1015.6
28.44	11.06	5.72	1130.3	1016.0
28.45	11.06	5.72	1131.0	1015.5
28.46	11.07	5.72	1130.6	1015.8
28.47	11.06	5.72	1130.8	1015.6
28.48	11.06	5.72	1130.7	1015.5
28.49	11.06	5.72	1131.2	1015.7
28.5	11.06	5.72	1130.6	1015.5
28.51	11.06	5.71	1130.9	1015.9
28.52	11.05	5.71	1130.4	1015.7
28.53	11.05	5.71	1131.3	1015.7
28.54	11.06	5.72	1130.9	1015.7
28.55	11.06	5.72	1129.9	1015.7
28.56	11.05	5.71	1129.7	1015.5
28.57	11.06	5.71	1130.2	1015.4
28.58	11.05	5.71	1130.5	1015.5
28.59	11.07	5.72	1130.0	1015.5
28.6	11.07	5.72	1130.2	1015.6
28.61	11.06	5.71	1129.5	1015.6
28.62	11.06	5.71	1130.3	1015.7
28.63	11.06	5.72	1129.4	1015.5
28.64	11.06	5.71	1130.5	1015.4
28.65	11.05	5.71	1129.7	1015.5
28.66	11.05	5.71	1129.9	1015.5
28.67	11.06	5.71	1130.1	1015.3
28.68	11.06	5.71	1130.2	1015.4
28.69	11.06	5.71	1129.7	1015.5
28.7	11.07	5.72	1129.8	1015.4
28.71	11.06	5.71	1129.8	1015.5
28.72	11.06	5.71	1129.7	1015.3
28.73	11.06	5.71	1129.6	1015.4
28.74	11.06	5.71	1129.3	1015.3
28.75	11.07	5.71	1129.6	1015.4
28.76	11.06	5.71	1129.4	1015.4
28.77	11.08	5.71	1129.5	1015.4
28.78	11.06	5.7	1129.2	1015.3
28.79	11.06	5.71	1130.0	1015.4
28.8	11.06	5.71	1129.2	1015.3
28.81	11.06	5.71	1129.3	1015.3
28.82	11.07	5.71	1129.1	1015.4
28.83	11.07	5.71	1129.3	1015.1
28.84	11.05	5.7	1129.5	1015.2
28.85	11.05	5.7	1129.1	1015.2
28.86	11.05	5.7	1128.8	1015.1
28.87	11.06	5.7	1129.3	1015.1
28.88	11.06	5.71	1129.8	1015.2
28.89	11.06	5.7	1129.8	1015.1
28.9	11.06	5.71	1129.0	1015.2
28.91	11.06	5.7	1129.0	1015.0
28.92	11.05	5.7	1129.6	1015.0
28.93	11.06	5.7	1129.3	1014.9
28.94	11.06	5.7	1129.3	1014.6
28.95	11.06	5.7	1128.9	1014.7
28.96	11.06	5.7	1129.8	1014.9
28.97	11.06	5.7	1129.0	1014.5
28.98	11.07	5.7	1129.4	1014.7
28.99	11.06	5.7	1129.5	1014.7
29.0	11.07	5.7	1129.4	1014.9
29.01	11.06	5.7	1129.4	1014.5
29.02	11.06	5.7	1129.5	1014.8
29.03	11.07	5.7	1129.2	1014.7
29.04	11.06	5.7	1128.8	1014.6
29.05	11.06	5.7	1129.4	1014.6
29.06	11.06	5.7	1129.1	1014.7
29.07	11.06	5.7	1129.4	1014.6
29.08	11.06	5.7	1128.8	1014.5
29.09	11.06	5.7	1129.0	1014.6
29.1	11.06	5.69	1129.2	1014.4
29.11	11.07	5.69	1128.2	1014.4
29.12	11.06	5.7	1128.5	1014.7
29.13	11.07	5.7	1129.5	1014.5
29.14	11.08	5.7	1129.8	1014.5
29.15	11.05	5.69	1129.0	1014.3
29.16	11.06	5.69	1128.6	1014.6
29.17	11.05	5.69	1128.7	1014.4
29.18	11.06	5.69	1129.0	1014.2
29.19	11.06	5.69	1129.0	1014.3
29.2	11.07	5.69	1129.1	1014.5
29.21	11.06	5.69	1128.6	1014.2
29.22	11.07	5.69	1129.4	1014.3
29.23	11.04	5.69	1129.0	1014.3
29.24	11.05	5.69	1128.2	1014.3
29.25	11.06	5.69	1128.3	1014.1
29.26	11.06	5.69	1128.4	1014.2
29.27	11.07	5.7	1129.0	1014.1
29.28	11.05	5.68	1128.6	1014.1
29.29	11.06	5.69	1128.7	1014.3
29.3	11.06	5.69	1128.7	1014.1
29.31	11.05	5.69	1129.0	1013.8
29.32	11.05	5.69	1128.5	1014.1
29.33	11.06	5.69	1128.7	1014.1
29.34	11.07	5.69	1128.5	1014.0
29.35	11.06	5.68	1128.7	1013.9
29.36	11.06	5.69	1128.8	1013.9
29.37	11.06	5.69	1128.6	1014.0
29.38	11.06	5.69	1128.1	1013.7
29.39	11.06	5.68	1128.6	1013.8
29.4	11.07	5.69	1128.8	1013.4
29.41	11.06	5.69	1127.7	1013.7
29.42	11.06	5.69	1127.8	1013.6
29.43	11.06	5.69	1127.2	1013.6
29.44	11.05	5.68	1128.1	1013.6
29.45	11.06	5.69	1128.2	1013.8
29.46	11.06	5.69	1128.0	1013.7
29.47	11.06	5.68	1127.6	1013.6
29.48	11.06	5.69	1128.6	1013.7
29.49	11.06	5.68	1128.3	1013.6
29.5	11.06	5.68	1127.9	1013.4
29.51	11.06	5.68	1127.4	1013.6
29.52	11.05	5.68	1127.7	1013.6
29.53	11.06	5.68	1127.7	1013.7
29.54	11.06	5.68	1127.3	1013.5
29.55	11.07	5.68	1128.5	1013.4
29.56	11.06	5.68	1127.0	1013.5
29.57	11.06	5.68	1127.8	1013.4
29.58	11.07	5.68	1127.4	1013.4
29.59	11.06	5.68	1127.7	1013.5
29.6	11.05	5.67	1127.3	1013.5
29.61	11.06	5.68	1127.8	1013.4
29.62	11.06	5.68	1127.8	1013.5
29.63	11.07	5.68	1127.5	1013.6
29.64	11.07	5.68	1127.1	1013.5
29.65	11.05	5.67	1127.7	1013.3
29.66	11.06	5.68	1127.5	1013.5
29.67	11.05	5.67	1127.4	1013.1
29.68	11.05	5.68	1127.1	1013.5
29.69	11.06	5.68	1126.8	1013.4
29.7	11.06	5.68	1127.7	1013.5
29.71	11.06	5.68	1127.2	1013.5
29.72	11.05	5.67	1127.5	1013.4
29.73	11.07	5.68	1127.1	1013.3
29.74	11.05	5.67	1126.9	1013.4
29.75	11.06	5.67	1127.4	1013.4
29.76	11.07	5.68	1127.3	1013.4
29.77	11.06	5.67	1126.7	1013.4
29.78	11.07	5.68	1127.0	1013.4
29.79	11.06	5.67	1126.9	1013.4
29.8	11.07	5.67	1127.5	1013.5
29.81	11.06	5.67	1127.3	1013.3
29.82	11.07	5.67	1126.9	1013.5
29.83	11.06	5.67	1127.6	1013.2
29.84	11.06	5.67	1127.4	1013.6
29.85	11.06	5.67	1127.0	1013.1
29.86	11.06	5.67	1126.7	1013.3
29.87	11.06	5.67	1127.4	1013.2
29.88	11.06	5.67	1127.3	1013.4
29.89	11.06	5.67	1127.2	1013.3
29.9	11.08	5.67	1126.9	1013.2
29.91	11.06	5.67	1127.2	1013.0
29.92	11.06	5.67	1127.5	1013.1
29.93	11.06	5.67	1127.1	1013.0
29.94	11.06	5.67	1127.1	1013.1
29.95	11.05	5.66	1127.0	1013.4
29.96	11.07	5.67	1127.1	1013.2
29.97	11.05	5.67	1127.3	1012.9
29.98	11.06	5.67	1127.2	1013.2
29.99	11.06	5.67	1126.0	1012.9
30.0	11.06	5.67	1127.0	1013.2
30.01	11.06	5.66	1126.7	1013.0
30.02	11.06	5.67	1126.9	1013.2
30.03	11.06	5.66	1127.1	1013.1
30.04	11.08	5.67	1126.9	1013.2
30.05	11.06	5.66	1126.9	1013.3
30.06	11.05	5.66	1126.7	1013.1
30.07	11.06	5.66	1126.4	1013.1
30.08	11.06	5.66	1126.4	1013.1
30.09	11.06	5.66	1126.2	1013.4
30.1	11.06	5.67	1126.3	1013.1
30.11	11.06	5.66	1126.8	1013.1
30.12	11.06	5.66	1126.6	1013.3
30.13	11.05	5.66	1126.9	1013.0
30.14	11.05	5.66	1126.4	1013.0
30.15	11.06	5.66	1126.4	1013.0
30.16	11.05	5.66	1125.6	1013.2
30.17	11.07	5.66	1126.6	1012.8
30.18	11.06	5.66	1126.9	1013.1
30.19	11.06	5.66	1126.6	1013.1
30.2	11.06	5.66	1126.4	1013.1
30.21	11.05	5.65	1126.0	1013.0
30.22	11.05	5.66	1126.4	1013.1
30.23	11.06	5.66	1126.1	1012.8
30.24	11.05	5.66	1125.9	1012.9
30.25	11.07	5.66	1125.8	1012.9
30.26	11.05	5.65	1126.7	1012.8
30.27	11.07	5.66	1126.8	1012.4
30.28	11.06	5.65	1126.5	1012.9
30.29	11.06	5.65	1126.0	1012.9
30.3	11.06	5.66	1126.4	1013.0
30.31	11.06	5.66	1126.3	1012.7
30.32	11.06	5.66	1126.6	1012.7
30.33	11.07	5.66	1125.9	1013.0
30.34	11.06	5.65	1125.9	1012.9
30.35	11.05	5.65	1126.5	1012.7
30.36	11.05	5.65	1126.3	1012.8
30.37	11.06	5.65	1125.8	1012.6
30.38	11.06	5.65	1125.8	1012.7
30.39	11.07	5.66	1126.4	1012.5
30.4	11.07	5.65	1126.2	1012.6
30.41	11.06	5.65	1126.3	1012.6
30.42	11.05	5.65	1126.1	1012.7
30.43	11.06	5.65	1126.3	1012.8
30.44	11.06	5.65	1126.8	1012.7
30.45	11.06	5.65	1126.0	1012.5
30.46	11.06	5.65	1126.0	1012.5
30.47	11.06	5.65	1126.0	1012.5
30.48	11.06	5.65	1126.1	1012.5
30.49	11.06	5.65	1125.3	1012.6
30.5	11.06	5.65	1126.1	1012.5
30.51	11.06	5.65	1125.4	1012.4
30.52	11.06	5.65	1126.0	1012.5
30.53	11.06	5.65	1125.7	1012.4
30.54	11.06	5.65	1125.7	1012.3
30.55	11.07	5.65	1125.4	1012.3
30.56	11.07	5.65	1126.2	1012.4
30.57	11.05	5.65	1125.9	1012.3
30.58	11.06	5.65	1126.0	1012.4
30.59	11.06	5.65	1125.3	1012.1
30.6	11.07	5.65	1125.7	1012.1
30.61	11.05	5.64	1125.7	1011.9
30.62	11.07	5.65	1125.7	1012.0
30.63	11.05	5.64	1125.2	1012.0
30.64	11.07	5.64	1124.9	1012.1
30.65	11.06	5.64	1125.6	1011.9
30.66	11.07	5.64	1126.0	1012.1
30.67	11.06	5.64	1125.9	1011.7
30.68	11.06	5.64	1124.9	1011.8
30.69	11.05	5.64	1125.6	1011.7
30.7	11.05	5.64	1125.5	1011.8
30.71	11.06	5.64	1125.3	1011.8
30.72	11.06	5.64	1125.1	1011.9
30.73	11.05	5.64	1125.6	1011.8
30.74	11.06	5.64	1125.6	1011.8
30.75	11.05	5.64	1125.4	1011.5
30.76	11.06	5.64	1125.2	1011.6
30.77	11.06	5.64	1125.0	1011.7
30.78	11.06	5.64	1125.3	1011.7
30.79	11.06	5.64	1125.1	1011.5
30.8	11.05	5.64	1126.0	1011.5
30.81	11.06	5.64	1124.8	1011.7
30.82	11.06	5.64	1125.2	1011.5
30.83	11.06	5.64	1125.0	1011.6
30.84	11.07	5.64	1125.1	1011.3
30.85	11.06	5.64	1124.5	1011.4
30.86	11.05	5.64	1124.8	1011.5
30.87	11.06	5.63	1125.2	1011.4
30.88	11.05	5.64	1125.2	1011.5
30.89	11.07	5.64	1124.9	1011.3
30.9	11.06	5.64	1125.0	1011.5
30.91	11.06	5.64	1125.0	1011.1
30.92	11.05	5.64	1124.7	1011.5
30.93	11.05	5.63	1124.6	1011.3
30.94	11.04	5.63	1124.4	1011.3
30.95	11.07	5.64	1124.8	1011.5
30.96	11.06	5.64	1124.5	1011.4
30.97	11.06	5.63	1124.7	1011.1
30.98	11.06	5.63	1124.4	1011.2
30.99	11.07	5.63	1124.3	1011.2
31.0	11.06	5.63	1124.7	1011.3
31.01	11.06	5.63	1124.4	1011.0
31.02	11.06	5.63	1124.4	1011.2
31.03	11.07	5.64	1124.6	1010.8
31.04	11.06	5.63	1124.9	1011.0
31.05	11.06	5.63	1124.4	1011.2
31.06	11.06	5.63	1124.4	1011.3
31.07	11.06	5.63	1124.0	1011.0
31.08	11.06	5.63	1124.0	1011.2
31.09	11.05	5.63	1124.3	1010.8
31.1	11.06	5.63	1124.3	1011.3
31.11	11.06	5.63	1123.4	1011.0
31.12	11.06	5.63	1124.7	1011.3
31.13	11.05	5.63	1124.6	1011.0
31.14	11.06	5.63	1124.5	1010.9
31.15	11.05	5.63	1124.1	1010.9
31.16	11.06	5.63	1124.0	1011.1
31.17	11.05	5.62	1123.9	1010.7
31.18	11.06	5.63	1124.1	1010.9
31.19	11.06	5.63	1123.7	1010.9
31.2	11.06	5.63	1123.1	1010.7
31.21	11.06	5.63	1123.6	1010.9
31.22	11.06	5.63	1123.8	1010.8
31.23	11.05	5.63	1123.8	1010.8
31.24	11.06	5.63	1124.0	1010.8
31.25	11.05	5.62	1123.7	1010.8
31.26	11.06	5.63	1124.2	1010.7
31.27	11.05	5.62	1123.7	1010.7
31.28	11.06	5.63	1123.2	1010.7
31.29	11.06	5.62	1124.0	1011.0
31.3	11.08	5.63	1123.5	1010.7
31.31	11.05	5.62	1123.6	1010.5
31.32	11.06	5.62	1123.7	1010.7
31.33	11.05	5.62	1123.4	1010.2
31.34	11.06	5.62	1123.6	1010.5
31.35	11.07	5.62	1123.3	1010.6
31.36	11.07	5.63	1123.8	1010.6
31.37	11.06	5.62	1122.6	1010.4
31.38	11.06	5.62	1124.0	1010.5
31.39	11.06	5.62	1123.7	1010.1
31.4	11.06	5.62	1123.6	1010.4
31.41	11.05	5.62	1123.4	1010.4
31.42	11.06	5.62	1124.2	1010.6
31.43	11.06	5.62	1123.7	1010.4
31.44	11.07	5.62	1123.2	1010.4
31.45	11.06	5.62	1123.3	1010.2
31.46	11.05	5.62	1123.0	1010.3
31.47	11.06	5.62	1123.6	1010.2
31.48	11.04	5.61	1123.4	1010.3
31.49	11.06	5.62	1123.2	1010.1
31.5	11.06	5.62	1123.0	1010.1
31.51	11.06	5.62	1123.4	1010.2
31.52	11.06	5.62	1123.4	1010.1
31.53	11.06	5.62	1123.0	1010.0
31.54	11.06	5.62	1122.5	1010.3
31.55	11.05	5.61	1123.4	1010.1
31.56	11.05	5.61	1123.6	1010.0
31.57	11.06	5.62	1122.9	1009.9
31.58	11.06	5.62	1123.1	1010.2
31.59	11.06	5.62	1122.7	1010.2
31.6	11.07	5.62	1122.9	1009.9
31.61	11.07	5.62	1123.0	1009.9
31.62	11.05	5.61	1123.0	1010.0
31.63	11.06	5.61	1122.1	1010.0
31.64	11.06	5.61	1123.5	1010.0
31.65	11.06	5.61	1122.8	1010.1
31.66	11.05	5.61	1123.0	1010.2
31.67	11.07	5.62	1122.5	1010.0
31.68	11.05	5.61	1122.8	1010.0
31.69	11.05	5.61	1122.9	1010.0
31.7	11.05	5.61	1122.5	1010.1
31.71	11.06	5.61	1122.0	1009.8
31.72	11.05	5.61	1121.8	1010.0
31.73	11.05	5.61	1122.8	1009.7
31.74	11.05	5.61	1122.4	1010.1
31.75	11.06	5.61	1122.7	1010.0
31.76	11.05	5.61	1122.5	1010.1
31.77	11.06	5.61	1122.8	1009.8
31.78	11.07	5.62	1122.7	1009.8
31.79	11.05	5.6	1122.8	1009.8
31.8	11.06	5.61	1123.0	1009.8
31.81	11.06	5.61	1122.5	1010.0
31.82	11.06	5.61	1122.6	1009.8
31.83	11.06	5.61	1122.6	1009.8
31.84	11.07	5.61	1122.6	1009.6
31.85	11.07	5.61	1122.3	1009.6
31.86	11.06	5.61	1123.3	1009.9
31.87	11.07	5.61	1122.5	1009.8
31.88	11.06	5.61	1122.4	1009.9
31.89	11.05	5.61	1122.2	1009.8
31.9	11.07	5.61	1122.6	1009.8
31.91	11.05	5.61	1122.5	1009.9
31.92	11.06	5.6	1122.5	1010.2
31.93	11.06	5.61	1122.3	1009.8
31.94	11.07	5.61	1121.9	1009.8
31.95	11.06	5.61	1122.4	1009.8
31.96	11.06	5.61	1122.3	1009.7
31.97	11.07	5.61	1122.1	1009.7
31.98	11.07	5.61	1121.3	1009.6
31.99	11.06	5.61	1122.2	1009.5
32.0	11.06	5.6	1122.1	1009.7
32.01	11.05	5.6	1122.1	1009.5
32.02	11.05	5.6	1121.8	1009.6
32.03	11.06	5.61	1122.2	1009.5
32.04	11.06	5.6	1122.2	1009.6
32.05	11.06	5.6	1121.3	1009.6
32.06	11.08	5.61	1121.5	1009.5
32.07	11.06	5.6	1121.8	1009.3
32.08	11.06	5.6	1122.3	1009.6
32.09	11.06	5.6	1122.5	1009.5
32.1	11.06	5.6	1121.9	1009.6
32.11	11.06	5.6	1121.2	1009.2
32.12	11.07	5.61	1122.7	1009.3
32.13	11.06	5.6	1121.6	1009.2
32.14	11.07	5.6	1122.3	1009.4
32.15	11.06	5.6	1121.2	1009.2
32.16	11.06	5.6	1121.9	1009.2
32.17	11.07	5.6	1121.8	1009.1
32.18	11.05	5.6	1122.4	1009.5
32.19	11.07	5.6	1121.8	1009.5
32.2	11.06	5.6	1121.5	1008.9
32.21	11.06	5.6	1121.8	1008.9
32.22	11.06	5.6	1121.4	1009.2
32.23	11.06	5.6	1121.2	1009.4
32.24	11.06	5.6	1121.3	1009.2
32.25	11.05	5.6	1121.1	1009.2
32.26	11.05	5.6	1120.9	1009.1
32.27	11.07	5.6	1120.8	1009.2
32.28	11.06	5.6	1120.8	1009.1
32.29	11.06	5.6	1121.1	1009.1
32.3	11.07	5.6	1121.0	1009.0
32.31	11.05	5.59	1120.6	1009.0
32.32	11.07	5.6	1120.1	1008.9
32.33	11.06	5.6	1120.4	1008.8
32.34	11.04	5.59	1120.5	1008.9
32.35	11.06	5.59	1120.8	1009.0
32.36	11.05	5.59	1121.1	1008.8
32.37	11.06	5.6	1121.0	1008.8
32.38	11.06	5.59	1120.8	1009.0
32.39	11.07	5.6	1120.8	1008.9
32.4	11.07	5.6	1121.2	1008.8
32.41	11.06	5.59	1120.4	1008.5
32.42	11.06	5.59	1120.9	1009.0
32.43	11.06	5.59	1121.2	1008.6
32.44	11.05	5.59	1121.2	1008.8
32.45	11.06	5.59	1120.8	1008.7
32.46	11.06	5.59	1121.1	1008.6
32.47	11.06	5.59	1121.0	1008.6
32.48	11.07	5.6	1121.0	1008.6
32.49	11.06	5.59	1120.6	1008.6
32.5	11.07	5.6	1120.1	1008.6
32.51	11.06	5.59	1121.1	1008.2
32.52	11.05	5.59	1120.5	1008.5
32.53	11.05	5.59	1121.2	1008.3
32.54	11.06	5.59	1120.5	1008.4
32.55	11.07	5.59	1120.5	1008.5
32.56	11.07	5.59	1120.4	1008.5
32.57	11.06	5.59	1120.2	1008.3
32.58	11.06	5.59	1119.7	1008.4
32.59	11.07	5.59	1120.0	1008.3
32.6	11.06	5.59	1120.4	1008.5
32.61	11.06	5.59	1120.2	1008.4
32.62	11.06	5.59	1120.3	1008.3
32.63	11.05	5.59	1119.9	1008.3
32.64	11.07	5.59	1120.3	1008.3
32.65	11.06	5.59	1119.9	1008.3
32.66	11.07	5.59	1119.6	1008.5
32.67	11.05	5.59	1118.7	1008.6
32.68	11.07	5.59	1119.8	1008.4
32.69	11.07	5.59	1119.3	1008.3
32.7	11.06	5.58	1120.0	1008.3
32.71	11.06	5.59	1119.4	1008.6
32.72	11.07	5.59	1119.5	1008.4
32.73	11.06	5.58	1119.3	1008.2
32.74	11.07	5.59	1119.3	1008.3
32.75	11.06	5.58	1119.1	1008.3
32.76	11.06	5.58	1119.0	1008.3
32.77	11.06	5.59	1119.0	1008.3
32.78	11.06	5.58	1119.1	1008.4
32.79	11.06	5.59	1119.7	1008.2
32.8	11.06	5.58	1119.4	1008.1
32.81	11.07	5.59	1119.6	1008.2
32.82	11.06	5.58	1119.3	1008.2
32.83	11.06	5.59	1119.1	1008.3
32.84	11.07	5.59	1119.1	1008.1
32.85	11.06	5.58	1118.7	1008.0
32.86	11.06	5.58	1119.4	1008.0
32.87	11.07	5.58	1119.1	1008.0
32.88	11.07	5.59	1119.4	1008.0
32.89	11.06	5.58	1118.3	1008.0
32.9	11.06	5.58	1119.1	1008.1
32.91	11.06	5.58	1118.9	1008.2
32.92	11.06	5.58	1119.1	1008.0
32.93	11.06	5.58	1118.7	1008.3
32.94	11.06	5.58	1119.0	1008.1
32.95	11.06	5.58	1119.3	1008.2
32.96	11.06	5.58	1119.2	1008.0
32.97	11.06	5.58	1119.1	1008.1
32.98	11.05	5.58	1118.6	1008.0
32.99	11.06	5.58	1119.4	1008.0
33.0	11.06	5.58	1118.7	1008.2
33.01	11.05	5.58	1118.7	1008.4
33.02	11.07	5.58	1118.5	1008.2
33.03	11.06	5.58	1119.2	1007.9
33.04	11.05	5.58	1118.5	1008.1
33.05	11.06	5.58	1118.7	1007.8
33.06	11.05	5.57	1118.1	1008.1
33.07	11.07	5.58	1118.6	1007.9
33.08	11.06	5.58	1118.7	1007.6
33.09	11.06	5.57	1118.6	1007.7
33.1	11.05	5.58	1118.7	1007.9
33.11	11.06	5.57	1118.4	1007.8
33.12	11.05	5.58	1118.7	1007.7
33.13	11.06	5.58	1118.4	1007.7
33.14	11.06	5.57	1118.4	1007.9
33.15	11.06	5.58	1118.2	1007.6
33.16	11.05	5.57	1118.5	1007.9
33.17	11.07	5.57	1118.3	1007.6
33.18	11.05	5.57	1118.4	1007.7
33.19	11.06	5.57	1118.2	1007.4
33.2	11.06	5.57	1118.5	1007.5
33.21	11.06	5.58	1118.4	1007.5
33.22	11.06	5.57	1118.4	1007.5
33.23	11.07	5.58	1118.2	1007.5
33.24	11.06	5.57	1117.5	1007.4
33.25	11.05	5.57	1117.5	1007.6
33.26	11.06	5.57	1117.8	1007.5
33.27	11.07	5.58	1117.9	1007.5
33.28	11.07	5.58	1117.4	1007.3
33.29	11.06	5.57	1117.9	1007.4
33.3	11.06	5.57	1118.3	1007.4
33.31	11.07	5.57	1117.4	1007.5
33.32	11.06	5.57	1117.3	1007.4
33.33	11.07	5.57	1117.6	1007.4
33.34	11.06	5.57	1117.9	1007.5
33.35	11.06	5.57	1117.6	1007.1
33.36	11.07	5.57	1117.6	1007.7
33.37	11.07	5.57	1117.0	1007.3
33.38	11.06	5.57	1117.8	1007.3
33.39	11.06	5.57	1117.4	1007.4
33.4	11.07	5.57	1118.0	1007.4
33.41	11.06	5.57	1117.2	1007.1
33.42	11.06	5.57	1117.7	1007.1
33.43	11.07	5.57	1117.6	1007.3
33.44	11.07	5.57	1117.1	1007.2
33.45	11.06	5.57	1116.9	1007.1
33.46	11.06	5.57	1117.5	1007.4
33.47	11.05	5.56	1116.9	1006.9
33.48	11.06	5.56	1117.0	1007.3
33.49	11.05	5.57	1117.1	1007.0
33.5	11.07	5.57	1116.9	1006.9
33.51	11.06	5.57	1117.3	1007.0
33.52	11.07	5.57	1116.8	1007.1
33.53	11.06	5.57	1116.8	1007.1
33.54	11.06	5.57	1116.8	1007.0
33.55	11.05	5.56	1117.0	1006.9
33.56	11.06	5.57	1116.9	1007.0
33.57	11.06	5.57	1116.7	1006.9
33.58	11.06	5.56	1116.6	1007.0
33.59	11.06	5.57	1116.7	1006.9
33.6	11.05	5.56	1116.6	1007.0
33.61	11.06	5.56	1116.4	1006.8
33.62	11.05	5.56	1116.2	1006.6
33.63	11.06	5.56	1116.6	1006.5
33.64	11.06	5.56	1116.4	1006.8
33.65	11.07	5.57	1116.7	1006.6
33.66	11.07	5.56	1116.7	1006.7
33.67	11.06	5.56	1115.6	1006.6
33.68	11.05	5.56	1116.9	1006.7
33.69	11.07	5.56	1116.0	1006.6
33.7	11.05	5.56	1116.4	1006.3
33.71	11.06	5.56	1115.8	1006.2
33.72	11.05	5.56	1116.1	1006.2
33.73	11.05	5.56	1116.2	1006.2
33.74	11.06	5.56	1116.2	1006.3
33.75	11.07	5.56	1115.8	1006.5
33.76	11.06	5.56	1116.0	1006.5
33.77	11.06	5.56	1116.4	1006.3
33.78	11.06	5.56	1115.8	1006.6
33.79	11.05	5.56	1115.7	1006.4
33.8	11.05	5.56	1115.6	1006.6
33.81	11.06	5.56	1115.7	1006.3
33.82	11.06	5.56	1115.8	1006.3
33.83	11.06	5.56	1115.1	1006.3
33.84	11.06	5.56	1115.6	1006.0
33.85	11.06	5.56	1116.0	1006.3
33.86	11.05	5.55	1115.9	1006.2
33.87	11.06	5.56	1115.4	1006.4
33.88	11.05	5.56	1115.0	1006.2
33.89	11.05	5.55	1115.6	1006.3
33.9	11.06	5.56	1116.1	1006.4
33.91	11.06	5.56	1116.0	1006.2
33.92	11.05	5.56	1115.3	1006.4
33.93	11.07	5.56	1115.2	1006.4
33.94	11.06	5.56	1115.5	1006.3
33.95	11.06	5.56	1115.4	1006.2
33.96	11.06	5.56	1115.8	1006.4
33.97	11.05	5.55	1115.0	1006.2
33.98	11.06	5.56	1115.3	1006.4
33.99	11.06	5.56	1115.0	1006.2
34.0	11.06	5.56	1115.0	1006.5
34.01	11.06	5.56	1114.5	1006.4
34.02	11.06	5.55	1115.6	1006.5
34.03	11.06	5.56	1115.6	1006.2
34.04	11.06	5.55	1115.2	1006.4
34.05	11.06	5.55	1115.1	1006.4
34.06	11.06	5.56	1115.3	1006.2
34.07	11.06	5.55	1115.6	1006.2
34.08	11.07	5.56	1114.8	1006.3
34.09	11.06	5.55	1115.2	1006.2
34.1	11.07	5.56	1114.3	1006.2
34.11	11.06	5.56	1115.0	1005.9
34.12	11.07	5.55	1114.9	1006.0
34.13	11.06	5.55	1114.4	1006.2
34.14	11.06	5.55	1114.6	1006.3
34.15	11.06	5.55	1115.0	1005.8
34.16	11.07	5.55	1115.5	1006.5
34.17	11.06	5.55	1114.9	1005.9
34.18	11.07	5.56	1115.0	1006.0
34.19	11.06	5.55	1114.7	1006.0
34.2	11.07	5.55	1115.1	1005.8
34.21	11.06	5.55	1114.9	1006.1
34.22	11.05	5.55	1115.1	1006.1
34.23	11.06	5.55	1114.7	1006.2
34.24	11.06	5.55	1115.2	1005.8
34.25	11.05	5.55	1114.4	1006.0
34.26	11.07	5.55	1114.4	1006.1
34.27	11.05	5.54	1113.8	1006.0
34.28	11.05	5.55	1114.8	1006.1
34.29	11.06	5.55	1114.6	1006.1
34.3	11.05	5.55	1114.7	1006.0
34.31	11.06	5.55	1114.7	1006.1
34.32	11.05	5.55	1114.4	1006.0
34.33	11.06	5.55	1114.4	1006.0
34.34	11.06	5.55	1114.4	1006.1
34.35	11.06	5.55	1114.4	1006.0
34.36	11.07	5.55	1114.3	1006.1
34.37	11.07	5.55	1114.3	1006.1
34.38	11.05	5.54	1114.6	1005.9
34.39	11.07	5.55	1114.3	1005.9
34.4	11.07	5.55	1114.8	1006.2
34.41	11.07	5.55	1114.5	1006.0
34.42	11.06	5.54	1114.2	1006.1
34.43	11.07	5.55	1114.1	1005.9
34.44	11.05	5.54	1114.0	1006.2
34.45	11.06	5.54	1114.4	1005.8
34.46	11.06	5.54	1114.6	1005.8
34.47	11.07	5.55	1114.3	1005.7
34.48	11.06	5.55	1115.0	1005.9
34.49	11.07	5.55	1114.0	1006.0
34.5	11.06	5.55	1115.0	1005.7
34.51	11.06	5.54	1114.5	1005.9
34.52	11.07	5.55	1114.7	1005.7
34.53	11.05	5.54	1114.1	1005.9
34.54	11.05	5.54	1114.5	1005.7
34.55	11.07	5.55	1114.6	1005.7
34.56	11.05	5.54	1114.3	1005.5
34.57	11.06	5.54	1114.9	1005.7
34.58	11.06	5.54	1114.1	1005.7
34.59	11.06	5.54	1114.1	1005.7
34.6	11.05	5.54	1113.9	1005.5
34.61	11.07	5.54	1114.0	1005.9
34.62	11.06	5.54	1113.2	1005.9
34.63	11.07	5.54	1113.8	1005.7
34.64	11.05	5.54	1114.0	1005.8
34.65	11.06	5.54	1113.8	1005.6
34.66	11.06	5.54	1113.5	1005.7
34.67	11.06	5.54	1113.7	1005.6
34.68	11.07	5.54	1113.5	1005.4
34.69	11.06	5.54	1113.4	1005.8
34.7	11.07	5.54	1113.5	1005.7
34.71	11.07	5.54	1113.0	1005.6
34.72	11.05	5.53	1113.5	1005.4
34.73	11.06	5.54	1113.4	1005.3
34.74	11.06	5.53	1113.6	1005.6
34.75	11.07	5.54	1113.3	1005.5
34.76	11.07	5.54	1113.7	1005.6
34.77	11.06	5.54	1113.5	1005.4
34.78	11.06	5.54	1113.6	1005.3
34.79	11.06	5.54	1113.0	1005.6
34.8	11.06	5.53	1113.5	1005.5
34.81	11.06	5.54	1113.0	1005.5
34.82	11.06	5.54	1113.4	1005.4
34.83	11.06	5.54	1112.9	1005.3
34.84	11.06	5.54	1113.2	1005.1
34.85	11.06	5.54	1113.0	1005.5
34.86	11.06	5.53	1113.2	1005.2
34.87	11.06	5.54	1113.2	1005.3
34.88	11.06	5.54	1112.9	1005.6
34.89	11.05	5.53	1113.7	1005.1
34.9	11.07	5.54	1113.1	1005.4
34.91	11.06	5.54	1113.5	1005.1
34.92	11.07	5.54	1113.2	1005.4
34.93	11.06	5.53	1113.3	1005.0
34.94	11.07	5.54	1113.4	1005.2
34.95	11.06	5.53	1113.2	1005.2
34.96	11.06	5.53	1113.0	1005.4
34.97	11.05	5.53	1112.9	1005.1
34.98	11.06	5.53	1113.0	1005.1
34.99	11.06	5.53	1112.8	1005.1
35.0	11.06	5.53	1113.4	1005.2
35.01	11.07	5.54	1112.4	1005.3
35.02	11.06	5.53	1113.1	1005.4
35.03	11.06	5.53	1112.5	1005.4
35.04	11.07	5.54	1113.0	1005.2
35.05	11.06	5.53	1112.0	1005.2
35.06	11.05	5.53	1112.5	1005.2
35.07	11.06	5.53	1112.3	1005.2
35.08	11.05	5.53	1112.7	1005.2
35.09	11.07	5.53	1112.1	1005.0
35.1	11.06	5.53	1111.8	1005.0
35.11	11.06	5.53	1112.9	1004.9
35.12	11.06	5.53	1112.1	1005.1
35.13	11.07	5.53	1112.1	1005.0
35.14	11.05	5.53	1111.9	1004.9
35.15	11.06	5.53	1112.6	1004.8
35.16	11.06	5.53	1112.6	1005.1
35.17	11.07	5.53	1112.6	1004.9
35.18	11.07	5.53	1112.1	1004.6
35.19	11.07	5.54	1112.3	1004.9
35.2	11.06	5.53	1112.4	1004.8
35.21	11.06	5.53	1112.3	1004.8
35.22	11.06	5.53	1112.1	1004.9
35.23	11.06	5.53	1112.6	1004.7
35.24	11.06	5.53	1112.6	1005.1
35.25	11.07	5.53	1112.4	1004.7
35.26	11.06	5.53	1112.1	1004.7
35.27	11.06	5.53	1111.6	1004.7
35.28	11.06	5.53	1112.3	1004.7
35.29	11.06	5.53	1112.1	1004.6
35.3	11.05	5.53	1112.1	1004.5
35.31	11.06	5.53	1111.6	1004.4
35.32	11.05	5.52	1112.1	1004.8
35.33	11.05	5.53	1111.8	1004.5
35.34	11.05	5.53	1112.0	1004.5
35.35	11.06	5.53	1111.8	1004.5
35.36	11.05	5.52	1112.1	1004.6
35.37	11.06	5.52	1112.1	1004.6
35.38	11.06	5.53	1111.7	1004.4
35.39	11.06	5.52	1111.5	1004.5
35.4	11.06	5.53	1111.6	1004.5
35.41	11.06	5.52	1111.8	1004.5
35.42	11.05	5.52	1111.8	1004.7
35.43	11.06	5.53	1111.3	1004.6
35.44	11.07	5.53	1111.3	1004.6
35.45	11.06	5.53	1111.7	1004.4
35.46	11.07	5.53	1111.9	1004.7
35.47	11.06	5.52	1111.9	1004.4
35.48	11.06	5.52	1111.4	1004.7
35.49	11.05	5.52	1111.4	1004.5
35.5	11.06	5.52	1111.6	1004.6
35.51	11.05	5.52	1111.3	1004.2
35.52	11.06	5.52	1111.8	1004.5
35.53	11.06	5.53	1111.0	1004.5
35.54	11.06	5.52	1111.3	1004.5
35.55	11.07	5.53	1111.4	1004.2
35.56	11.06	5.52	1111.8	1004.3
35.57	11.05	5.52	1111.1	1004.4
35.58	11.06	5.52	1111.5	1004.2
35.59	11.06	5.52	1111.1	1004.2
35.6	11.06	5.52	1110.9	1004.2
35.61	11.07	5.53	1110.4	1004.3
35.62	11.06	5.52	1110.1	1004.2
35.63	11.06	5.52	1111.4	1004.6
35.64	11.07	5.52	1111.4	1004.2
35.65	11.06	5.52	1110.9	1004.4
35.66	11.07	5.52	1110.3	1004.4
35.67	11.06	5.52	1111.1	1004.2
35.68	11.05	5.52	1111.2	1004.3
35.69	11.07	5.52	1111.0	1004.2
35.7	11.07	5.52	1110.7	1004.4
35.71	11.06	5.52	1111.3	1004.3
35.72	11.05	5.52	1111.4	1004.2
35.73	11.06	5.52	1111.4	1004.3
35.74	11.07	5.52	1110.9	1004.3
35.75	11.05	5.52	1110.5	1004.4
35.76	11.06	5.52	1111.6	1004.4
35.77	11.06	5.52	1110.6	1004.3
35.78	11.06	5.52	1111.3	1004.2
35.79	11.05	5.52	1110.8	1004.3
35.8	11.07	5.52	1111.4	1004.1
35.81	11.06	5.52	1110.6	1004.3
35.82	11.07	5.52	1110.9	1004.1
35.83	11.05	5.51	1110.6	1004.0
35.84	11.07	5.52	1111.1	1004.1
35.85	11.07	5.52	1110.5	1003.7
35.86	11.05	5.52	1110.4	1003.9
35.87	11.07	5.52	1110.4	1004.5
35.88	11.06	5.52	1110.3	1004.1
35.89	11.08	5.52	1110.7	1004.1
35.9	11.05	5.51	1110.2	1004.2
35.91	11.07	5.52	1110.2	1004.0
35.92	11.06	5.51	1110.1	1004.1
35.93	11.06	5.51	1110.6	1004.2
35.94	11.05	5.51	1110.1	1004.1
35.95	11.07	5.52	1109.9	1004.0
35.96	11.05	5.51	1109.4	1004.1
35.97	11.05	5.51	1110.2	1004.0
35.98	11.05	5.51	1110.3	1004.0
35.99	11.05	5.51	1109.9	1004.0
36.0	11.08	5.52	1109.9	1004.0
36.01	11.06	5.51	1110.0	1004.0
36.02	11.06	5.51	1110.1	1004.0
36.03	11.06	5.51	1110.0	1004.0
36.04	11.06	5.51	1109.8	1003.9
36.05	11.06	5.51	1109.8	1004.0
36.06	11.06	5.51	1109.8	1003.9
36.07	11.06	5.51	1110.0	1004.0
36.08	11.07	5.51	1109.8	1003.8
36.09	11.05	5.51	1109.1	1003.9
36.1	11.06	5.51	1109.5	1003.8
36.11	11.05	5.51	1109.4	1003.9
36.12	11.06	5.51	1109.7	1003.7
36.13	11.06	5.51	1109.0	1003.9
36.14	11.07	5.52	1109.7	1003.9
36.15	11.05	5.51	1109.4	1003.8
36.16	11.05	5.51	1109.6	1004.0
36.17	11.06	5.51	1109.6	1003.6
36.18	11.06	5.51	1109.4	1003.5
36.19	11.05	5.51	1109.9	1003.7
36.2	11.06	5.51	1109.6	1003.8
36.21	11.06	5.51	1109.6	1003.8
36.22	11.07	5.51	1108.9	1003.7
36.23	11.07	5.51	1109.4	1003.8
36.24	11.07	5.51	1109.6	1003.6
36.25	11.06	5.51	1109.6	1003.6
36.26	11.05	5.51	1109.4	1003.8
36.27	11.05	5.51	1109.4	1003.9
36.28	11.07	5.51	1109.4	1003.6
36.29	11.05	5.51	1109.1	1003.7
36.3	11.07	5.51	1109.3	1003.5
36.31	11.05	5.51	1108.9	1003.4
36.32	11.06	5.51	1109.4	1003.6
36.33	11.06	5.51	1109.3	1003.6
36.34	11.07	5.51	1108.8	1003.6
36.35	11.05	5.5	1108.1	1003.6
36.36	11.06	5.51	1108.9	1003.5
36.37	11.07	5.51	1109.0	1003.6
36.38	11.06	5.51	1108.9	1003.5
36.39	11.05	5.5	1109.0	1003.2
36.4	11.06	5.51	1108.5	1003.5
36.41	11.06	5.51	1109.2	1003.1
36.42	11.06	5.51	1109.5	1003.4
36.43	11.07	5.51	1109.4	1003.3
36.44	11.06	5.51	1108.6	1003.4
36.45	11.06	5.51	1108.9	1003.4
36.46	11.05	5.51	1108.8	1003.4
36.47	11.07	5.51	1109.1	1003.6
36.48	11.06	5.51	1108.5	1003.3
36.49	11.07	5.51	1108.9	1003.1
36.5	11.06	5.51	1108.4	1003.3
36.51	11.07	5.51	1108.5	1003.3
36.52	11.05	5.5	1108.2	1003.0
36.53	11.05	5.5	1108.3	1003.3
36.54	11.06	5.51	1108.6	1003.4
36.55	11.07	5.51	1108.6	1003.1
36.56	11.05	5.5	1108.7	1002.9
36.57	11.07	5.51	1107.8	1002.9
36.58	11.05	5.5	1108.5	1003.0
36.59	11.07	5.51	1108.3	1003.0
36.6	11.05	5.5	1108.6	1002.9
36.61	11.06	5.5	1107.7	1002.9
36.62	11.06	5.5	1108.6	1002.8
36.63	11.07	5.51	1108.8	1002.9
36.64	11.06	5.5	1108.4	1003.0
36.65	11.07	5.5	1108.2	1003.0
36.66	11.05	5.5	1108.0	1003.2
36.67	11.07	5.5	1108.7	1002.9
36.68	11.05	5.5	1108.0	1003.1
36.69	11.06	5.5	1108.0	1002.6
36.7	11.05	5.5	1107.6	1002.7
36.71	11.06	5.5	1107.9	1002.9
36.72	11.07	5.5	1107.7	1002.7
36.73	11.06	5.5	1108.1	1003.1
36.74	11.07	5.5	1107.6	1003.0
36.75	11.07	5.5	1108.0	1002.9
36.76	11.05	5.5	1107.6	1002.9
36.77	11.05	5.5	1107.5	1002.8
36.78	11.06	5.5	1107.5	1002.6
36.79	11.06	5.5	1107.6	1002.7
36.8	11.07	5.5	1107.6	1002.8
36.81	11.05	5.5	1107.7	1002.7
36.82	11.07	5.5	1107.5	1003.0
36.83	11.06	5.5	1107.1	1002.8
36.84	11.05	5.5	1107.6	1002.8
36.85	11.06	5.5	1107.7	1002.6
36.86	11.06	5.5	1107.3	1002.8
36.87	11.05	5.5	1107.6	1002.7
36.88	11.06	5.5	1107.6	1002.4
36.89	11.05	5.5	1107.6	1002.5
36.9	11.06	5.5	1107.2	1002.6
36.91	11.05	5.49	1107.4	1002.4
36.92	11.06	5.49	1107.3	1002.4
36.93	11.06	5.5	1107.8	1002.4
36.94	11.07	5.5	1107.6	1002.6
36.95	11.06	5.5	1107.5	1002.4
36.96	11.07	5.5	1106.9	1002.6
36.97	11.06	5.5	1107.3	1002.4
36.98	11.07	5.5	1107.4	1002.6
36.99	11.06	5.5	1107.4	1002.4
37.0	11.06	5.49	1106.9	1002.4
37.01	11.06	5.49	1107.1	1002.6
37.02	11.07	5.5	1106.8	1002.5
37.03	11.06	5.5	1107.3	1002.3
37.04	11.06	5.5	1107.0	1002.3
37.05	11.06	5.5	1106.3	1002.1
37.06	11.06	5.5	1107.5	1002.4
37.07	11.06	5.5	1107.0	1002.3
37.08	11.06	5.49	1107.3	1002.3
37.09	11.06	5.49	1106.5	1002.3
37.1	11.06	5.49	1107.0	1002.3
37.11	11.06	5.49	1106.4	1002.2
37.12	11.07	5.5	1106.2	1002.4
37.13	11.06	5.49	1106.1	1002.2
37.14	11.06	5.49	1106.7	1002.2
37.15	11.06	5.49	1107.0	1002.2
37.16	11.06	5.5	1106.5	1002.2
37.17	11.06	5.49	1106.2	1002.0
37.18	11.06	5.49	1106.1	1002.0
37.19	11.08	5.5	1106.3	1002.0
37.2	11.06	5.49	1106.2	1002.1
37.21	11.07	5.49	1105.7	1002.0
37.22	11.06	5.5	1105.8	1002.0
37.23	11.06	5.49	1106.5	1002.0
37.24	11.07	5.5	1106.2	1002.0
37.25	11.07	5.49	1105.8	1001.9
37.26	11.05	5.49	1105.4	1002.0
37.27	11.07	5.49	1106.4	1002.2
37.28	11.05	5.49	1106.5	1002.0
37.29	11.06	5.49	1106.5	1002.0
37.3	11.05	5.49	1105.9	1002.0
37.31	11.06	5.49	1105.6	1002.2
37.32	11.06	5.49	1106.2	1002.0
37.33	11.05	5.49	1105.9	1001.7
37.34	11.06	5.49	1106.2	1001.9
37.35	11.06	5.49	1105.3	1001.8
37.36	11.06	5.49	1106.0	1002.1
37.37	11.07	5.49	1105.6	1001.7
37.38	11.06	5.49	1106.2	1001.9
37.39	11.06	5.49	1105.3	1001.6
37.4	11.07	5.49	1105.7	1001.4
37.41	11.06	5.49	1105.8	1001.8
37.42	11.06	5.49	1106.1	1001.7
37.43	11.06	5.49	1105.6	1001.6
37.44	11.07	5.49	1106.1	1001.7
37.45	11.06	5.49	1106.0	1001.5
37.46	11.07	5.49	1105.9	1001.7
37.47	11.05	5.48	1105.9	1001.9
37.48	11.06	5.49	1105.6	1001.6
37.49	11.05	5.48	1105.4	1001.7
37.5	11.06	5.49	1105.5	1001.5
37.51	11.05	5.49	1104.8	1001.7
37.52	11.07	5.49	1104.3	1002.2
37.53	11.07	5.49	1105.4	1001.6
37.54	11.08	5.49	1105.2	1001.2
37.55	11.05	5.49	1105.0	1001.3
37.56	11.05	5.49	1104.5	1001.4
37.57	11.07	5.49	1105.6	1001.3
37.58	11.06	5.49	1105.2	1001.5
37.59	11.05	5.48	1105.0	1001.3
37.6	11.07	5.49	1104.9	1001.3
37.61	11.06	5.49	1104.7	1001.3
37.62	11.06	5.49	1105.4	1001.6
37.63	11.05	5.48	1104.7	1001.6
37.64	11.06	5.49	1105.6	1001.2
37.65	11.07	5.49	1104.9	1001.4
37.66	11.05	5.48	1105.0	1001.4
37.67	11.07	5.49	1105.3	1001.2
37.68	11.06	5.49	1105.1	1001.3
37.69	11.06	5.49	1104.8	1001.4
37.7	11.06	5.49	1105.1	1001.4
37.71	11.06	5.49	1105.3	1001.5
37.72	11.06	5.48	1105.2	1001.4
37.73	11.07	5.49	1104.7	1001.3
37.74	11.06	5.48	1104.7	1001.1
37.75	11.06	5.49	1105.8	1001.2
37.76	11.06	5.48	1105.5	1001.3
37.77	11.05	5.48	1104.6	1001.1
37.78	11.06	5.48	1104.5	1001.1
37.79	11.07	5.49	1105.1	1001.1
37.8	11.07	5.49	1105.1	1001.2
37.81	11.07	5.49	1104.5	1001.2
37.82	11.06	5.48	1104.6	1001.0
37.83	11.07	5.48	1104.5	1001.0
37.84	11.05	5.48	1105.0	1001.0
37.85	11.05	5.48	1104.7	1001.2
37.86	11.07	5.49	1104.2	1001.0
37.87	11.06	5.48	1104.2	1001.1
37.88	11.06	5.48	1104.7	1001.0
37.89	11.06	5.48	1104.5	1000.9
37.9	11.05	5.48	1104.7	1000.9
37.91	11.07	5.48	1104.6	1001.2
37.92	11.06	5.48	1104.8	1001.1
37.93	11.05	5.48	1104.2	1001.0
37.94	11.06	5.48	1104.5	1001.0
37.95	11.06	5.48	1104.2	1001.3
37.96	11.06	5.48	1104.0	1001.0
37.97	11.08	5.49	1104.2	1001.1
37.98	11.05	5.48	1104.3	1001.1
37.99	11.06	5.48	1104.6	1001.0
38.0	11.06	5.48	1103.9	1000.8
38.01	11.06	5.48	1104.5	1001.0
38.02	11.06	5.48	1104.7	1000.8
38.03	11.06	5.48	1103.6	1000.8
38.04	11.05	5.48	1103.7	1000.6
38.05	11.07	5.48	1104.7	1000.7
38.06	11.06	5.48	1104.5	1000.6
38.07	11.05	5.48	1104.6	1000.9
38.08	11.05	5.48	1104.0	1000.7
38.09	11.07	5.48	1103.7	1000.9
38.1	11.05	5.48	1104.0	1000.8
38.11	11.06	5.47	1103.6	1000.7
38.12	11.06	5.48	1104.0	1000.6
38.13	11.05	5.47	1103.9	1000.8
38.14	11.06	5.48	1104.2	1001.0
38.15	11.07	5.48	1103.6	1000.8
38.16	11.05	5.47	1104.3	1000.7
38.17	11.07	5.48	1103.3	1000.8
38.18	11.06	5.48	1103.7	1000.8
38.19	11.05	5.47	1103.6	1000.7
38.2	11.07	5.48	1103.6	1000.5
38.21	11.06	5.48	1103.2	1000.6
38.22	11.07	5.48	1103.0	1000.5
38.23	11.05	5.47	1103.7	1000.4
38.24	11.06	5.47	1102.9	1000.5
38.25	11.06	5.48	1102.9	1000.4
38.26	11.06	5.48	1102.8	1000.6
38.27	11.06	5.48	1103.6	1000.5
38.28	11.07	5.48	1102.8	1000.6
38.29	11.05	5.47	1102.7	1000.5
38.3	11.06	5.48	1102.5	1000.5
38.31	11.07	5.48	1103.1	1000.5
38.32	11.06	5.47	1103.3	1000.5
38.33	11.05	5.47	1102.8	1000.4
38.34	11.05	5.47	1102.5	1000.5
38.35	11.06	5.48	1102.9	1000.5
38.36	11.06	5.48	1103.1	1000.4
38.37	11.05	5.47	1102.8	1000.1
38.38	11.05	5.47	1103.5	1000.2
38.39	11.05	5.47	1102.5	1000.2
38.4	11.07	5.48	1102.9	1000.3
38.41	11.07	5.48	1102.8	1000.3
38.42	11.06	5.47	1102.4	1000.1
38.43	11.06	5.47	1102.3	1000.3
38.44	11.06	5.47	1102.7	1000.3
38.45	11.06	5.47	1102.9	1000.1
38.46	11.07	5.48	1102.5	1000.2
38.47	11.07	5.48	1102.4	1000.1
38.48	11.08	5.48	1102.3	1000.2
38.49	11.05	5.47	1102.6	1000.3
38.5	11.05	5.47	1102.5	1000.0
38.51	11.06	5.47	1102.8	1000.2
38.52	11.08	5.48	1102.1	1000.1
38.53	11.07	5.48	1102.7	1000.0
38.54	11.06	5.47	1102.7	1000.2
38.55	11.06	5.47	1102.9	999.9
38.56	11.06	5.47	1102.0	1000.1
38.57	11.06	5.47	1102.6	1000.0
38.58	11.05	5.47	1102.1	1000.0
38.59	11.06	5.47	1102.0	1000.0
38.6	11.06	5.47	1102.0	999.9
38.61	11.07	5.47	1102.3	1000.1
38.62	11.06	5.47	1102.7	1000.1
38.63	11.06	5.47	1101.9	999.9
38.64	11.06	5.47	1102.4	1000.0
38.65	11.06	5.47	1101.8	999.9
38.66	11.06	5.47	1102.5	1000.0
38.67	11.06	5.47	1102.5	999.7
38.68	11.05	5.47	1102.4	999.9
38.69	11.07	5.47	1101.9	999.7
38.7	11.06	5.47	1102.3	999.9
38.71	11.05	5.47	1102.3	1000.0
38.72	11.05	5.47	1101.6	1000.0
38.73	11.06	5.47	1101.5	1000.0
38.74	11.06	5.47	1102.2	999.8
38.75	11.06	5.47	1101.8	999.8
38.76	11.05	5.47	1102.0	999.8
38.77	11.07	5.47	1101.4	999.6
38.78	11.06	5.47	1101.7	999.7
38.79	11.06	5.47	1102.3	999.8
38.8	11.05	5.47	1101.6	999.7
38.81	11.06	5.47	1101.5	999.7
38.82	11.07	5.47	1101.1	999.6
38.83	11.07	5.47	1101.7	999.5
38.84	11.06	5.47	1101.2	999.6
38.85	11.05	5.46	1101.7	999.7
38.86	11.05	5.46	1101.4	999.8
38.87	11.06	5.47	1101.6	999.7
38.88	11.07	5.47	1101.7	999.6
38.89	11.06	5.47	1101.5	999.6
38.9	11.06	5.47	1101.1	999.5
38.91	11.05	5.46	1101.5	999.4
38.92	11.06	5.47	1101.2	999.7
38.93	11.06	5.47	1101.6	999.5
38.94	11.07	5.47	1101.4	999.5
38.95	11.07	5.47	1100.5	999.4
38.96	11.06	5.46	1101.1	999.4
38.97	11.06	5.47	1100.8	999.5
38.98	11.07	5.47	1101.2	999.4
38.99	11.05	5.46	1100.4	999.5
39.0	11.06	5.47	1101.2	999.4
39.01	11.06	5.46	1101.2	999.2
39.02	11.06	5.46	1100.8	999.3
39.03	11.06	5.46	1100.3	999.2
39.04	11.06	5.46	1100.6	999.2
39.05	11.06	5.47	1101.0	999.4
39.06	11.06	5.46	1100.7	999.5
39.07	11.05	5.46	1100.9	999.2
39.08	11.06	5.46	1100.3	999.3
39.09	11.05	5.46	1100.4	999.4
39.1	11.05	5.46	1100.3	999.1
39.11	11.05	5.46	1100.7	999.3
39.12	11.06	5.47	1100.2	999.2
39.13	11.06	5.46	1100.4	999.0
39.14	11.05	5.46	1100.3	999.2
39.15	11.06	5.46	1100.5	998.9
39.16	11.06	5.46	1100.2	999.0
39.17	11.06	5.47	1100.4	999.3
39.18	11.06	5.46	1100.7	998.9
39.19	11.05	5.46	1100.7	999.0
39.2	11.07	5.47	1101.3	999.1
39.21	11.05	5.46	1100.3	999.2
39.22	11.06	5.46	1100.4	999.2
39.23	11.07	5.47	1100.5	999.1
39.24	11.06	5.46	1100.5	999.0
39.25	11.05	5.46	1099.8	998.9
39.26	11.06	5.46	1100.5	999.0
39.27	11.06	5.46	1100.2	998.9
39.28	11.06	5.46	1099.7	999.2
39.29	11.06	5.46	1099.2	998.9
39.3	11.08	5.47	1099.6	998.8
39.31	11.07	5.47	1099.8	998.8
39.32	11.05	5.46	1099.8	999.0
39.33	11.07	5.46	1099.7	998.8
39.34	11.07	5.47	1099.5	998.8
39.35	11.05	5.46	1099.4	998.9
39.36	11.06	5.46	1099.5	998.7
39.37	11.07	5.46	1099.2	998.8
39.38	11.05	5.46	1098.9	998.6
39.39	11.07	5.46	1100.2	998.9
39.4	11.06	5.46	1099.8	998.8
39.41	11.07	5.46	1099.5	998.7
39.42	11.07	5.46	1098.8	998.8
39.43	11.07	5.46	1099.4	998.7
39.44	11.06	5.46	1099.5	998.6
39.45	11.06	5.46	1099.3	998.7
39.46	11.05	5.46	1098.9	998.5
39.47	11.08	5.46	1099.1	998.5
39.48	11.05	5.46	1099.3	998.4
39.49	11.05	5.46	1098.9	998.6
39.5	11.05	5.45	1098.8	998.5
39.51	11.06	5.46	1098.5	998.5
39.52	11.06	5.46	1099.0	998.6
39.53	11.06	5.46	1099.2	998.4
39.54	11.05	5.46	1098.9	998.3
39.55	11.06	5.46	1098.6	998.5
39.56	11.05	5.46	1099.3	998.5
39.57	11.06	5.46	1099.2	998.4
39.58	11.07	5.46	1098.8	998.2
39.59	11.06	5.45	1098.8	998.6
39.6	11.05	5.45	1099.3	998.4
39.61	11.06	5.46	1099.0	998.6
39.62	11.07	5.46	1098.6	998.3
39.63	11.06	5.46	1098.6	998.6
39.64	11.05	5.45	1099.2	998.5
39.65	11.06	5.45	1098.9	998.2
39.66	11.06	5.45	1099.2	998.3
39.67	11.06	5.46	1098.9	998.1
39.68	11.07	5.46	1098.0	998.1
39.69	11.06	5.46	1099.1	998.2
39.7	11.07	5.46	1098.9	998.0
39.71	11.06	5.46	1098.9	998.0
39.72	11.08	5.46	1098.6	998.4
39.73	11.06	5.46	1099.2	998.3
39.74	11.06	5.45	1099.2	998.3
39.75	11.07	5.46	1099.3	998.4
39.76	11.07	5.46	1099.8	998.2
39.77	11.06	5.45	1098.6	998.1
39.78	11.07	5.45	1099.1	998.2
39.79	11.04	5.45	1098.9	998.2
39.8	11.07	5.45	1098.9	998.0
39.81	11.05	5.45	1097.9	998.2
39.82	11.06	5.45	1098.5	998.4
39.83	11.07	5.46	1098.7	998.4
39.84	11.07	5.46	1098.5	998.5
39.85	11.05	5.45	1097.8	998.1
39.86	11.06	5.45	1098.0	998.1
39.87	11.06	5.46	1098.9	998.2
39.88	11.07	5.46	1098.4	998.2
39.89	11.05	5.45	1098.2	998.2
39.9	11.06	5.45	1098.2	998.3
39.91	11.06	5.45	1097.9	998.0
39.92	11.06	5.45	1098.0	998.1
39.93	11.07	5.46	1098.5	998.2
39.94	11.06	5.45	1097.8	998.0
39.95	11.08	5.46	1098.4	998.2
39.96	11.06	5.45	1098.2	998.1
39.97	11.06	5.45	1098.2	998.3
39.98	11.07	5.45	1098.1	998.2
39.99	11.07	5.46	1097.7	998.1
40.0	11.06	5.45	1097.8	998.1
40.01	11.07	5.45	1098.2	998.0
40.02	11.06	5.45	1098.2	998.2
40.03	11.07	5.45	1097.8	998.0
40.04	11.06	5.45	1097.9	997.6
40.05	11.07	5.45	1098.2	997.7
40.06	11.06	5.45	1098.4	997.9
40.07	11.05	5.45	1097.4	998.0
40.08	11.06	5.45	1097.9	997.7
40.09	11.07	5.45	1098.2	998.0
40.1	11.06	5.45	1097.8	998.0
40.11	11.07	5.45	1097.8	997.9
40.12	11.05	5.45	1098.2	997.8
40.13	11.07	5.45	1098.3	997.8
40.14	11.05	5.45	1098.0	997.6
40.15	11.07	5.45	1098.2	997.6
40.16	11.07	5.45	1097.6	997.6
40.17	11.06	5.45	1098.4	997.8
40.18	11.05	5.45	1097.7	997.6
40.19	11.07	5.45	1097.9	997.5
40.2	11.05	5.44	1097.2	997.7
40.21	11.05	5.44	1097.8	997.5
40.22	11.06	5.45	1098.2	997.6
40.23	11.06	5.44	1097.7	997.5
40.24	11.05	5.45	1097.5	997.6
40.25	11.07	5.45	1097.8	997.7
40.26	11.05	5.45	1098.0	997.3
40.27	11.07	5.45	1097.6	997.5
40.28	11.05	5.44	1098.0	997.4
40.29	11.05	5.45	1097.4	997.2
40.3	11.07	5.45	1098.2	997.3
40.31	11.05	5.44	1098.1	997.5
40.32	11.06	5.44	1098.1	997.3
40.33	11.07	5.45	1097.7	997.2
40.34	11.05	5.44	1097.6	997.3
40.35	11.06	5.44	1097.9	997.7
40.36	11.06	5.44	1098.0	997.4
40.37	11.07	5.45	1096.7	997.4
40.38	11.06	5.45	1097.2	997.2
40.39	11.05	5.44	1097.9	997.2
40.4	11.07	5.45	1097.8	997.6
40.41	11.06	5.45	1097.9	997.4
40.42	11.06	5.44	1096.4	997.5
40.43	11.07	5.45	1097.7	997.4
40.44	11.07	5.45	1097.4	997.4
40.45	11.07	5.45	1097.6	997.4
40.46	11.06	5.44	1097.0	997.3
40.47	11.07	5.45	1097.6	997.3
40.48	11.07	5.45	1097.5	997.2
40.49	11.06	5.44	1097.0	997.0
40.5	11.07	5.45	1096.2	997.3
40.51	11.07	5.45	1096.9	997.1
40.52	11.07	5.45	1097.8	997.2
40.53	11.07	5.45	1096.6	997.1
40.54	11.06	5.44	1097.0	997.3
40.55	11.06	5.45	1096.2	996.8
40.56	11.07	5.44	1096.6	997.1
40.57	11.05	5.44	1096.6	997.2
40.58	11.07	5.45	1096.6	997.0
40.59	11.05	5.44	1096.0	996.9
40.6	11.05	5.44	1096.3	996.8
40.61	11.06	5.44	1095.9	997.2
40.62	11.05	5.44	1095.8	996.8
40.63	11.06	5.45	1095.6	997.2
40.64	11.07	5.45	1095.5	997.2
40.65	11.06	5.45	1096.4	997.1
40.66	11.06	5.44	1095.7	996.8
40.67	11.06	5.44	1095.8	997.0
40.68	11.06	5.44	1095.1	997.1
40.69	11.05	5.44	1096.2	996.8
40.7	11.06	5.44	1096.4	996.8
40.71	11.06	5.44	1095.7	997.0
40.72	11.05	5.44	1095.5	996.8
40.73	11.05	5.44	1096.1	997.0
40.74	11.05	5.44	1096.4	996.8
40.75	11.07	5.44	1096.2	997.0
40.76	11.06	5.45	1095.7	996.6
40.77	11.07	5.44	1096.0	996.6
40.78	11.05	5.44	1096.0	996.6
40.79	11.06	5.44	1096.0	996.5
40.8	11.06	5.44	1096.0	996.7
40.81	11.07	5.44	1095.7	996.7
40.82	11.06	5.44	1096.4	996.4
40.83	11.06	5.44	1096.1	996.6
40.84	11.06	5.44	1095.8	996.8
40.85	11.07	5.44	1095.8	996.7
40.86	11.06	5.44	1095.7	996.7
40.87	11.07	5.44	1096.1	996.7
40.88	11.06	5.44	1095.9	996.8
40.89	11.08	5.44	1095.7	996.6
40.9	11.06	5.44	1095.7	996.9
40.91	11.06	5.44	1095.9	996.4
40.92	11.04	5.44	1095.7	996.3
40.93	11.06	5.44	1095.6	996.4
40.94	11.07	5.44	1095.4	996.3
40.95	11.07	5.44	1096.0	996.5
40.96	11.05	5.44	1095.4	996.5
40.97	11.06	5.44	1095.6	996.3
40.98	11.06	5.44	1095.6	996.4
40.99	11.06	5.44	1095.7	996.5
41.0	11.05	5.44	1095.5	996.4
41.01	11.07	5.44	1095.2	996.4
41.02	11.07	5.44	1095.5	996.4
41.03	11.06	5.44	1095.0	996.4
41.04	11.07	5.44	1095.6	996.1
41.05	11.07	5.44	1095.3	996.3
41.06	11.06	5.44	1095.2	996.2
41.07	11.06	5.44	1095.0	996.3
41.08	11.06	5.43	1095.4	996.4
41.09	11.07	5.44	1095.0	996.2
41.1	11.06	5.44	1095.4	996.1
41.11	11.04	5.43	1094.5	996.3
41.12	11.05	5.43	1095.1	996.2
41.13	11.05	5.43	1095.1	996.1
41.14	11.05	5.43	1095.0	996.2
41.15	11.07	5.44	1094.5	996.1
41.16	11.06	5.44	1094.8	996.2
41.17	11.06	5.44	1095.0	996.0
41.18	11.07	5.44	1094.4	996.1
41.19	11.06	5.43	1094.2	996.1
41.2	11.07	5.44	1094.3	995.9
41.21	11.05	5.43	1095.1	996.2
41.22	11.07	5.44	1094.2	995.9
41.23	11.06	5.44	1094.7	996.1
41.24	11.05	5.43	1094.4	996.1
41.25	11.05	5.43	1094.3	996.0
41.26	11.07	5.44	1094.6	996.1
41.27	11.06	5.44	1094.5	996.1
41.28	11.07	5.44	1094.2	996.1
41.29	11.06	5.44	1094.1	996.1
41.3	11.07	5.44	1094.4	996.0
41.31	11.06	5.43	1094.3	996.4
41.32	11.06	5.43	1094.5	996.1
41.33	11.07	5.44	1093.9	996.0
41.34	11.06	5.43	1094.3	996.3
41.35	11.05	5.43	1094.1	996.0
41.36	11.06	5.43	1094.6	996.0
41.37	11.06	5.44	1094.2	996.0
41.38	11.06	5.44	1094.6	996.0
41.39	11.06	5.43	1094.1	995.8
41.4	11.06	5.44	1094.0	995.9
41.41	11.06	5.43	1093.9	995.7
41.42	11.05	5.43	1093.8	995.8
41.43	11.05	5.43	1094.2	996.1
41.44	11.05	5.43	1093.5	995.8
41.45	11.04	5.43	1093.9	995.7
41.46	11.06	5.43	1093.4	995.7
41.47	11.05	5.43	1093.7	995.8
41.48	11.05	5.43	1093.7	995.7
41.49	11.07	5.43	1093.3	995.7
41.5	11.06	5.43	1093.1	995.9
41.51	11.07	5.44	1093.9	996.2
41.52	11.06	5.43	1093.7	995.4
41.53	11.06	5.43	1093.9	995.7
41.54	11.06	5.43	1093.5	995.6
41.55	11.06	5.43	1093.4	995.5
41.56	11.06	5.43	1093.6	995.6
41.57	11.07	5.43	1093.8	995.7
41.58	11.06	5.43	1094.2	995.4
41.59	11.07	5.43	1093.6	995.7
41.6	11.07	5.43	1093.6	995.4
41.61	11.07	5.43	1093.6	995.4
41.62	11.05	5.43	1093.6	995.6
41.63	11.07	5.43	1093.2	995.5
41.64	11.05	5.43	1093.4	995.6
41.65	11.05	5.43	1093.4	995.4
41.66	11.06	5.43	1093.4	995.5
41.67	11.06	5.43	1092.9	995.4
41.68	11.06	5.43	1093.1	995.6
41.69	11.07	5.43	1093.3	995.5
41.7	11.05	5.43	1093.4	995.6
41.71	11.06	5.43	1092.9	995.7
41.72	11.05	5.42	1092.8	995.3
41.73	11.06	5.43	1093.6	995.4
41.74	11.07	5.43	1093.5	995.6
41.75	11.05	5.43	1093.7	995.2
41.76	11.05	5.42	1092.9	995.5
41.77	11.05	5.43	1093.5	995.2
41.78	11.06	5.43	1093.5	995.4
41.79	11.06	5.43	1093.2	995.4
41.8	11.06	5.43	1093.2	995.3
41.81	11.07	5.43	1092.7	995.3
41.82	11.06	5.43	1092.8	995.3
41.83	11.06	5.43	1092.7	995.2
41.84	11.07	5.43	1093.1	995.3
41.85	11.06	5.43	1092.4	995.3
41.86	11.06	5.43	1092.9	995.2
41.87	11.06	5.43	1093.0	995.4
41.88	11.06	5.43	1092.8	995.2
41.89	11.06	5.43	1092.3	995.1
41.9	11.06	5.43	1093.0	995.2
41.91	11.05	5.43	1092.6	995.2
41.92	11.07	5.43	1092.5	995.3
41.93	11.05	5.43	1092.7	995.2
41.94	11.07	5.43	1092.5	995.5
41.95	11.06	5.43	1092.6	995.3
41.96	11.06	5.42	1092.8	995.3
41.97	11.05	5.43	1092.8	995.0
41.98	11.06	5.43	1092.2	995.3
41.99	11.06	5.43	1093.1	995.4
42.0	11.07	5.43	1092.8	995.2
42.01	11.05	5.42	1092.9	995.2
42.02	11.07	5.43	1092.2	995.3
42.03	11.05	5.43	1092.3	995.2
42.04	11.07	5.43	1092.5	995.0
42.05	11.06	5.43	1092.6	995.2
42.06	11.06	5.42	1092.5	994.9
42.07	11.05	5.42	1092.0	995.2
42.08	11.06	5.43	1092.2	995.0
42.09	11.06	5.43	1091.9	995.0
42.1	11.06	5.43	1092.7	995.1
42.11	11.08	5.43	1091.8	994.8
42.12	11.06	5.43	1092.2	995.0
42.13	11.05	5.42	1092.1	995.0
42.14	11.06	5.42	1091.6	995.0
42.15	11.05	5.42	1091.8	995.0
42.16	11.05	5.43	1092.1	994.9
42.17	11.07	5.43	1092.6	995.0
42.18	11.05	5.42	1092.2	994.9
42.19	11.07	5.43	1091.6	995.0
42.2	11.05	5.42	1091.6	995.0
42.21	11.05	5.42	1091.8	995.1
42.22	11.05	5.42	1092.1	994.9
42.23	11.05	5.42	1092.1	995.2
42.24	11.06	5.42	1091.6	995.1
42.25	11.06	5.42	1091.5	994.8
42.26	11.06	5.43	1091.6	995.1
42.27	11.07	5.42	1091.6	994.9
42.28	11.07	5.43	1091.9	995.2
42.29	11.07	5.42	1091.7	994.7
42.3	11.06	5.42	1091.8	994.7
42.31	11.07	5.43	1091.8	995.0
42.32	11.05	5.42	1091.8	994.4
42.33	11.06	5.42	1090.9	994.8
42.34	11.07	5.43	1091.6	994.7
42.35	11.07	5.43	1091.7	994.7
42.36	11.06	5.42	1091.4	994.6
42.37	11.06	5.43	1090.9	994.8
42.38	11.06	5.42	1091.6	994.4
42.39	11.05	5.42	1091.6	994.8
42.4	11.06	5.42	1091.6	994.7
42.41	11.05	5.42	1091.0	994.5
42.42	11.06	5.42	1091.3	994.6
42.43	11.05	5.42	1091.1	994.6
42.44	11.06	5.42	1091.1	994.5
42.45	11.05	5.42	1090.8	994.7
42.46	11.06	5.42	1090.7	994.7
42.47	11.07	5.42	1091.5	994.8
42.48	11.06	5.42	1091.1	994.6
42.49	11.07	5.43	1091.0	994.8
42.5	11.06	5.42	1090.6	994.5
42.51	11.04	5.42	1091.0	994.8
42.52	11.08	5.43	1091.3	994.4
42.53	11.06	5.42	1091.3	994.8
42.54	11.05	5.42	1090.5	994.8
42.55	11.05	5.42	1091.0	994.4
42.56	11.06	5.42	1090.8	994.7
42.57	11.06	5.42	1090.9	994.4
42.58	11.06	5.42	1090.0	994.3
42.59	11.06	5.42	1090.3	994.4
42.6	11.07	5.42	1091.2	994.5
42.61	11.05	5.42	1091.0	994.3
42.62	11.07	5.42	1091.0	994.4
42.63	11.06	5.42	1089.8	994.3
42.64	11.05	5.41	1091.3	994.4
42.65	11.06	5.42	1090.7	994.4
42.66	11.06	5.42	1090.6	994.4
42.67	11.05	5.42	1090.0	994.3
42.68	11.06	5.42	1090.5	994.2
42.69	11.05	5.42	1090.6	994.3
42.7	11.06	5.42	1090.5	994.5
42.71	11.06	5.42	1090.4	994.6
42.72	11.07	5.42	1090.6	994.3
42.73	11.06	5.42	1091.2	994.6
42.74	11.06	5.42	1090.6	994.3
42.75	11.07	5.43	1090.2	994.3
42.76	11.06	5.42	1090.0	994.5
42.77	11.05	5.42	1090.8	994.1
42.78	11.06	5.42	1090.5	994.3
42.79	11.05	5.42	1090.5	994.3
42.8	11.06	5.42	1089.7	994.4
42.81	11.06	5.42	1090.5	994.4
42.82	11.05	5.42	1090.4	994.5
42.83	11.07	5.42	1089.9	994.3
42.84	11.06	5.42	1090.6	994.1
42.85	11.07	5.42	1089.8	994.4
42.86	11.07	5.42	1091.3	994.1
42.87	11.05	5.42	1090.3	994.5
42.88	11.06	5.42	1090.6	994.3
42.89	11.07	5.42	1090.4	994.2
42.9	11.05	5.41	1090.0	994.1
42.91	11.06	5.42	1090.0	994.0
42.92	11.05	5.42	1090.0	994.1
42.93	11.07	5.42	1089.6	994.3
42.94	11.05	5.41	1090.2	994.0
42.95	11.06	5.41	1090.1	994.0
42.96	11.06	5.42	1089.9	994.0
42.97	11.07	5.42	1090.3	994.0
42.98	11.06	5.42	1089.7	994.0
42.99	11.07	5.42	1090.3	994.3
43.0	11.05	5.42	1090.1	994.1
43.01	11.07	5.42	1089.9	994.0
43.02	11.07	5.42	1089.2	993.8
43.03	11.08	5.42	1090.2	993.9
43.04	11.05	5.42	1089.9	993.9
43.05	11.05	5.41	1090.4	993.8
43.06	11.06	5.41	1089.7	993.8
43.07	11.07	5.42	1089.8	993.9
43.08	11.05	5.41	1089.9	993.9
43.09	11.06	5.41	1089.8	993.7
43.1	11.05	5.41	1090.1	993.8
43.11	11.06	5.41	1089.5	994.0
43.12	11.06	5.42	1089.7	993.7
43.13	11.06	5.41	1089.3	994.0
43.14	11.07	5.42	1089.5	993.7
43.15	11.06	5.42	1089.1	993.5
43.16	11.05	5.41	1089.4	993.8
43.17	11.06	5.42	1089.5	994.0
43.18	11.06	5.41	1089.2	993.7
43.19	11.05	5.41	1089.0	993.6
43.2	11.07	5.42	1088.8	993.7
43.21	11.06	5.42	1089.1	993.8
43.22	11.06	5.41	1088.5	993.8
43.23	11.05	5.41	1089.7	994.1
43.24	11.06	5.41	1088.5	993.6
43.25	11.05	5.41	1089.2	993.7
43.26	11.06	5.41	1089.0	993.5
43.27	11.06	5.41	1089.3	993.5
43.28	11.06	5.41	1088.8	993.6
43.29	11.06	5.41	1088.9	993.6
43.3	11.06	5.41	1089.3	993.5
43.31	11.06	5.41	1088.8	993.2
43.32	11.06	5.42	1088.9	993.5
43.33	11.06	5.41	1089.1	993.6
43.34	11.05	5.41	1089.3	993.4
43.35	11.06	5.42	1088.8	993.5
43.36	11.06	5.41	1089.5	993.2
43.37	11.06	5.41	1088.7	993.2
43.38	11.06	5.42	1088.8	993.4
43.39	11.04	5.41	1089.5	993.3
43.4	11.06	5.41	1089.2	993.5
43.41	11.06	5.41	1088.6	993.1
43.42	11.07	5.41	1088.8	993.1
43.43	11.06	5.41	1088.9	993.4
43.44	11.05	5.41	1088.3	993.1
43.45	11.06	5.42	1088.6	993.3
43.46	11.07	5.42	1088.3	993.2
43.47	11.06	5.41	1089.0	993.3
43.48	11.06	5.41	1088.7	993.3
43.49	11.06	5.41	1088.3	993.1
43.5	11.07	5.41	1087.6	993.2
43.51	11.06	5.41	1088.2	993.0
43.52	11.06	5.41	1088.8	993.2
43.53	11.06	5.41	1088.5	993.4
43.54	11.06	5.41	1088.1	992.9
43.55	11.06	5.41	1088.4	993.4
43.56	11.06	5.41	1088.7	993.3
43.57	11.07	5.41	1088.4	993.4
43.58	11.06	5.41	1088.7	993.4
43.59	11.06	5.41	1088.1	993.2
43.6	11.05	5.41	1088.3	993.4
43.61	11.06	5.41	1088.4	993.3
43.62	11.06	5.41	1088.3	993.0
43.63	11.06	5.41	1087.9	993.4
43.64	11.07	5.41	1088.1	993.0
43.65	11.06	5.41	1088.3	993.2
43.66	11.06	5.41	1088.2	993.2
43.67	11.06	5.41	1087.8	993.0
43.68	11.05	5.41	1087.7	993.2
43.69	11.06	5.41	1088.8	993.0
43.7	11.06	5.41	1088.0	993.0
43.71	11.07	5.41	1088.3	993.0
43.72	11.04	5.41	1087.9	992.8
43.73	11.06	5.41	1088.4	993.0
43.74	11.06	5.41	1088.4	992.9
43.75	11.07	5.41	1087.8	992.8
43.76	11.07	5.41	1088.0	992.8
43.77	11.07	5.41	1088.2	992.9
43.78	11.05	5.41	1088.1	993.0
43.79	11.06	5.41	1088.0	992.9
43.8	11.06	5.41	1088.0	992.7
43.81	11.06	5.41	1087.9	992.8
43.82	11.08	5.41	1087.8	992.7
43.83	11.06	5.41	1087.8	992.6
43.84	11.06	5.41	1087.7	993.0
43.85	11.07	5.41	1087.9	993.0
43.86	11.06	5.41	1088.1	993.0
43.87	11.06	5.41	1088.2	992.8
43.88	11.07	5.41	1088.7	992.9
43.89	11.07	5.41	1087.7	992.9
43.9	11.06	5.41	1087.9	993.0
43.91	11.05	5.4	1088.0	992.8
43.92	11.08	5.41	1087.7	992.8
43.93	11.05	5.41	1087.7	992.7
43.94	11.06	5.41	1087.2	992.7
43.95	11.05	5.4	1087.5	992.6
43.96	11.05	5.4	1087.5	992.8
43.97	11.05	5.4	1087.6	992.6
43.98	11.06	5.41	1086.6	992.7
43.99	11.06	5.41	1087.5	992.7
44.0	11.07	5.41	1087.5	992.5
44.01	11.06	5.41	1087.6	992.5
44.02	11.06	5.41	1087.1	992.6
44.03	11.05	5.4	1086.8	992.5
44.04	11.07	5.41	1086.8	992.5
44.05	11.06	5.41	1086.9	992.7
44.06	11.05	5.4	1087.1	992.8
44.07	11.06	5.41	1086.7	992.3
44.08	11.06	5.41	1087.8	992.5
44.09	11.06	5.4	1087.2	992.6
44.1	11.07	5.41	1087.4	992.5
44.11	11.05	5.4	1087.0	992.4
44.12	11.07	5.41	1087.1	992.5
44.13	11.06	5.41	1087.1	992.6
44.14	11.05	5.4	1086.9	992.7
44.15	11.06	5.4	1086.6	992.7
44.16	11.05	5.4	1086.8	992.5
44.17	11.06	5.41	1087.6	992.8
44.18	11.07	5.41	1087.2	992.5
44.19	11.07	5.41	1087.5	992.4
44.2	11.06	5.4	1086.9	992.4
44.21	11.06	5.41	1087.3	992.2
44.22	11.07	5.41	1086.7	992.5
44.23	11.06	5.4	1086.8	992.4
44.24	11.06	5.4	1086.6	992.4
44.25	11.05	5.4	1086.8	992.0
44.26	11.05	5.4	1086.7	992.0
44.27	11.07	5.41	1086.8	992.2
44.28	11.06	5.4	1086.4	992.1
44.29	11.06	5.4	1086.6	992.1
44.3	11.06	5.4	1086.4	992.3
44.31	11.06	5.4	1086.6	992.1
44.32	11.06	5.4	1086.6	992.1
44.33	11.06	5.4	1086.5	991.8
44.34	11.06	5.4	1086.8	992.1
44.35	11.07	5.4	1086.9	991.9
44.36	11.05	5.4	1086.2	992.0
44.37	11.06	5.4	1085.9	991.7
44.38	11.05	5.4	1086.7	992.0
44.39	11.06	5.4	1086.7	992.1
44.4	11.06	5.4	1085.8	992.0
44.41	11.06	5.4	1085.8	992.1
44.42	11.06	5.4	1086.2	991.6
44.43	11.07	5.41	1085.9	991.9
44.44	11.06	5.41	1086.4	991.7
44.45	11.05	5.4	1086.2	991.4
44.46	11.05	5.4	1086.0	991.9
44.47	11.07	5.41	1086.1	991.6
44.48	11.06	5.41	1086.2	991.7
44.49	11.07	5.4	1085.8	991.4
44.5	11.06	5.4	1085.4	991.8
44.51	11.06	5.4	1085.9	991.6
44.52	11.06	5.4	1085.4	991.7
44.53	11.05	5.4	1085.6	991.5
44.54	11.05	5.4	1085.6	991.4
44.55	11.06	5.4	1085.9	992.0
44.56	11.07	5.4	1085.4	991.5
44.57	11.07	5.4	1085.5	991.8
44.58	11.05	5.4	1085.4	991.7
44.59	11.07	5.4	1085.4	991.6
44.6	11.07	5.4	1086.0	991.6
44.61	11.05	5.4	1085.5	991.6
44.62	11.07	5.4	1085.5	991.8
44.63	11.06	5.4	1085.8	991.5
44.64	11.06	5.4	1086.3	991.6
44.65	11.06	5.4	1086.1	991.7
44.66	11.06	5.4	1085.9	991.6
44.67	11.06	5.4	1085.2	991.6
44.68	11.06	5.4	1085.8	991.5
44.69	11.06	5.4	1085.7	991.6
44.7	11.07	5.4	1085.6	991.2
44.71	11.06	5.4	1085.9	991.4
44.72	11.07	5.4	1085.5	991.6
44.73	11.06	5.4	1085.6	991.2
44.74	11.06	5.4	1085.0	991.3
44.75	11.05	5.4	1085.3	991.3
44.76	11.06	5.4	1084.7	991.4
44.77	11.05	5.4	1085.2	991.5
44.78	11.06	5.4	1085.0	991.2
44.79	11.04	5.4	1085.6	991.4
44.8	11.06	5.4	1084.2	991.2
44.81	11.06	5.4	1084.9	991.2
44.82	11.07	5.4	1084.4	991.2
44.83	11.06	5.4	1084.4	991.0
44.84	11.07	5.4	1084.2	991.0
44.85	11.05	5.4	1084.6	991.1
44.86	11.07	5.4	1084.4	991.1
44.87	11.05	5.39	1084.0	991.0
44.88	11.06	5.4	1084.5	991.0
44.89	11.06	5.4	1084.0	991.2
44.9	11.07	5.4	1084.9	991.2
44.91	11.07	5.4	1084.0	990.9
44.92	11.05	5.39	1084.8	991.2
44.93	11.07	5.4	1084.0	990.8
44.94	11.05	5.4	1084.2	991.0
44.95	11.06	5.4	1084.0	991.0
44.96	11.06	5.4	1083.9	991.0
44.97	11.06	5.4	1083.6	991.2
44.98	11.06	5.4	1083.8	990.9
44.99	11.07	5.4	1084.0	990.9
45.0	11.07	5.4	1084.5	991.0
45.01	11.08	5.4	1084.1	991.0
45.02	11.05	5.39	1083.8	990.7
45.03	11.07	5.4	1084.6	991.0
45.04	11.06	5.4	1084.2	990.9
45.05	11.07	5.4	1084.1	991.0
45.06	11.05	5.4	1083.8	990.8
45.07	11.06	5.4	1084.1	990.9
45.08	11.05	5.39	1084.6	991.1
45.09	11.07	5.4	1083.8	990.9
45.1	11.06	5.4	1083.4	990.8
45.11	11.06	5.4	1083.9	990.9
45.12	11.06	5.4	1083.7	990.9
45.13	11.05	5.39	1084.3	990.9
45.14	11.06	5.4	1084.1	990.6
45.15	11.06	5.4	1083.8	990.6
45.16	11.06	5.4	1083.9	990.8
45.17	11.06	5.4	1084.2	990.6
45.18	11.06	5.4	1083.7	990.5
45.19	11.06	5.4	1083.5	990.8
45.2	11.06	5.4	1083.8	990.7
45.21	11.05	5.39	1083.6	990.6
45.22	11.05	5.39	1083.5	990.6
45.23	11.05	5.39	1083.5	990.9
45.24	11.06	5.39	1083.1	990.7
45.25	11.07	5.4	1083.9	990.8
45.26	11.07	5.4	1083.7	990.8
45.27	11.06	5.4	1083.8	990.8
45.28	11.06	5.4	1083.3	990.7
45.29	11.06	5.39	1083.6	990.8
45.3	11.07	5.4	1083.7	990.7
45.31	11.05	5.39	1084.1	991.2
45.32	11.06	5.39	1083.4	990.7
45.33	11.06	5.4	1083.5	990.7
45.34	11.06	5.39	1083.9	990.5
45.35	11.07	5.39	1083.9	990.8
45.36	11.06	5.39	1083.7	990.7
45.37	11.06	5.4	1083.4	990.8
45.38	11.05	5.39	1083.6	990.9
45.39	11.06	5.39	1083.5	990.7
45.4	11.07	5.4	1083.4	990.6
45.41	11.05	5.39	1082.8	990.7
45.42	11.07	5.4	1083.7	990.7
45.43	11.06	5.39	1083.7	990.5
45.44	11.06	5.4	1083.4	990.6
45.45	11.05	5.39	1082.8	990.6
45.46	11.05	5.39	1083.3	990.4
45.47	11.05	5.39	1083.7	990.9
45.48	11.05	5.39	1083.8	990.6
45.49	11.06	5.39	1083.1	990.7
45.5	11.05	5.39	1082.4	990.6
45.51	11.05	5.39	1083.6	990.5
45.52	11.06	5.39	1083.7	990.4
45.53	11.05	5.39	1083.5	990.4
45.54	11.05	5.39	1083.1	990.3
45.55	11.05	5.39	1083.3	990.4
45.56	11.06	5.39	1083.8	990.4
45.57	11.06	5.39	1083.6	990.5
45.58	11.06	5.39	1083.6	990.3
45.59	11.06	5.39	1083.4	990.6
45.6	11.05	5.39	1083.7	990.3
45.61	11.06	5.39	1083.1	990.5
45.62	11.06	5.39	1083.4	990.4
45.63	11.06	5.39	1083.3	990.5
45.64	11.06	5.39	1083.6	990.4
45.65	11.05	5.39	1083.5	990.5
45.66	11.06	5.39	1083.4	990.3
45.67	11.05	5.39	1083.2	990.3
45.68	11.06	5.39	1083.1	990.3
45.69	11.07	5.39	1083.4	990.1
45.7	11.06	5.39	1083.0	990.2
45.71	11.06	5.39	1083.5	990.2
45.72	11.05	5.39	1082.6	990.2
45.73	11.07	5.39	1083.0	990.4
45.74	11.05	5.39	1082.6	990.1
45.75	11.06	5.39	1082.8	990.0
45.76	11.06	5.39	1082.4	989.9
45.77	11.06	5.39	1082.8	990.0
45.78	11.05	5.39	1083.0	990.0
45.79	11.06	5.39	1083.0	990.1
45.8	11.06	5.39	1082.7	989.8
45.81	11.06	5.39	1082.8	990.0
45.82	11.05	5.39	1082.6	989.9
45.83	11.07	5.39	1082.6	989.9
45.84	11.06	5.39	1082.7	990.0
45.85	11.07	5.39	1081.9	990.2
45.86	11.06	5.39	1082.3	990.0
45.87	11.06	5.39	1082.5	989.9
45.88	11.05	5.39	1082.3	990.0
45.89	11.07	5.39	1082.2	989.8
45.9	11.06	5.39	1082.3	990.0
45.91	11.06	5.39	1082.7	990.0
45.92	11.07	5.39	1082.2	989.8
45.93	11.05	5.39	1082.6	990.0
45.94	11.07	5.39	1081.6	989.8
45.95	11.05	5.39	1082.2	990.0
45.96	11.06	5.39	1082.1	989.7
45.97	11.06	5.39	1082.4	989.8
45.98	11.05	5.39	1081.6	989.7
45.99	11.06	5.39	1082.6	989.9
46.0	11.06	5.39	1081.9	989.6
46.01	11.06	5.39	1081.8	989.9
46.02	11.05	5.39	1082.0	989.6
46.03	11.05	5.39	1082.0	989.5
46.04	11.06	5.39	1082.0	989.5
46.05	11.06	5.39	1082.2	989.7
46.06	11.06	5.39	1081.7	989.8
46.07	11.06	5.39	1081.6	989.6
46.08	11.06	5.38	1082.2	989.4
46.09	11.06	5.39	1081.9	989.7
46.1	11.06	5.39	1081.8	989.7
46.11	11.05	5.38	1081.8	989.7
46.12	11.06	5.39	1081.5	989.5
46.13	11.06	5.39	1081.5	989.8
46.14	11.07	5.39	1081.2	989.8
46.15	11.06	5.39	1081.6	989.6
46.16	11.06	5.38	1081.5	989.4
46.17	11.05	5.39	1081.0	989.6
46.18	11.07	5.39	1081.2	989.6
46.19	11.05	5.38	1081.2	989.7
46.2	11.05	5.38	1081.0	989.5
46.21	11.05	5.38	1081.2	989.6
46.22	11.06	5.39	1081.1	989.7
46.23	11.06	5.39	1081.0	989.6
46.24	11.06	5.39	1080.4	989.7
46.25	11.06	5.39	1081.4	989.6
46.26	11.06	5.38	1081.3	989.6
46.27	11.06	5.39	1081.5	989.8
46.28	11.05	5.38	1080.7	989.5
46.29	11.05	5.39	1081.2	989.6
46.3	11.07	5.39	1080.9	989.7
46.31	11.05	5.38	1080.6	989.7
46.32	11.06	5.39	1080.5	989.8
46.33	11.06	5.39	1080.6	989.8
46.34	11.06	5.39	1081.1	989.6
46.35	11.07	5.39	1080.8	989.5
46.36	11.05	5.38	1080.7	989.4
46.37	11.06	5.39	1080.4	989.5
46.38	11.06	5.39	1081.1	989.8
46.39	11.05	5.38	1081.0	989.7
46.4	11.06	5.39	1080.9	989.6
46.41	11.07	5.39	1080.3	989.8
46.42	11.05	5.38	1081.1	989.6
46.43	11.07	5.39	1081.0	989.7
46.44	11.06	5.38	1080.9	989.6
46.45	11.07	5.39	1080.8	989.9
46.46	11.07	5.39	1080.9	989.7
46.47	11.06	5.38	1080.9	989.6
46.48	11.06	5.38	1080.9	989.4
46.49	11.07	5.38	1080.6	989.5
46.5	11.05	5.38	1080.6	989.5
46.51	11.06	5.38	1081.1	989.8
46.52	11.05	5.38	1081.1	989.5
46.53	11.06	5.38	1081.1	989.6
46.54	11.05	5.38	1080.3	989.4
46.55	11.06	5.38	1081.3	989.8
46.56	11.06	5.38	1081.2	989.7
46.57	11.07	5.38	1080.8	989.5
46.58	11.06	5.38	1080.4	989.4
46.59	11.05	5.38	1080.9	989.7
46.6	11.06	5.39	1081.0	989.3
46.61	11.06	5.38	1080.7	989.6
46.62	11.05	5.38	1080.3	989.7
46.63	11.06	5.38	1080.3	989.9
46.64	11.06	5.39	1081.0	989.7
46.65	11.05	5.38	1080.7	989.7
46.66	11.07	5.39	1080.6	989.4
46.67	11.06	5.38	1080.0	989.6
46.68	11.05	5.38	1080.6	989.5
46.69	11.07	5.39	1080.8	989.6
46.7	11.06	5.39	1080.8	989.4
46.71	11.05	5.38	1080.3	989.7
46.72	11.06	5.38	1080.1	989.9
46.73	11.06	5.38	1080.6	989.5
46.74	11.06	5.38	1080.5	989.6
46.75	11.06	5.38	1080.2	989.8
46.76	11.06	5.38	1080.1	989.4
46.77	11.06	5.39	1080.6	989.5
46.78	11.05	5.38	1080.6	989.5
46.79	11.06	5.38	1080.6	989.7
46.8	11.05	5.38	1080.2	989.8
46.81	11.06	5.38	1080.6	989.5
46.82	11.08	5.39	1080.4	989.6
46.83	11.05	5.38	1080.4	989.8
46.84	11.07	5.38	1080.3	989.8
46.85	11.05	5.38	1080.2	989.6
46.86	11.05	5.38	1080.4	989.5
46.87	11.06	5.38	1080.7	989.4
46.88	11.05	5.38	1080.5	989.5
46.89	11.06	5.38	1080.3	989.2
46.9	11.06	5.38	1080.6	989.3
46.91	11.06	5.38	1080.7	989.4
46.92	11.07	5.38	1080.9	989.4
46.93	11.06	5.38	1080.4	989.2
46.94	11.06	5.38	1080.9	989.2
46.95	11.06	5.38	1080.8	989.2
46.96	11.05	5.38	1080.4	989.2
46.97	11.05	5.38	1079.6	989.4
46.98	11.06	5.38	1080.3	989.5
46.99	11.05	5.38	1080.4	989.2
47.0	11.07	5.38	1079.8	989.4
47.01	11.05	5.38	1079.3	989.7
47.02	11.06	5.38	1079.5	989.4
47.03	11.06	5.38	1080.2	989.4
47.04	11.06	5.38	1080.2	989.4
47.05	11.06	5.38	1080.0	989.7
47.06	11.07	5.38	1079.8	989.5
47.07	11.07	5.38	1080.6	989.8
47.08	11.05	5.38	1080.3	989.5
47.09	11.05	5.38	1080.0	989.5
47.1	11.06	5.38	1079.9	989.6
47.11	11.06	5.38	1079.7	989.6
47.12	11.07	5.38	1080.0	989.3
47.13	11.06	5.38	1080.0	989.6
47.14	11.05	5.38	1079.7	989.2
47.15	11.07	5.38	1079.6	989.3
47.16	11.08	5.39	1080.4	989.4
47.17	11.07	5.38	1080.1	989.3
47.18	11.05	5.38	1079.5	989.4
47.19	11.07	5.38	1079.8	989.3
47.2	11.06	5.38	1080.1	989.5
47.21	11.07	5.38	1079.7	989.3
47.22	11.04	5.37	1079.8	989.2
47.23	11.06	5.38	1079.6	989.2
47.24	11.06	5.38	1079.8	989.1
47.25	11.06	5.38	1079.6	989.3
47.26	11.05	5.38	1079.8	989.3
47.27	11.06	5.38	1079.2	989.6
47.28	11.06	5.38	1078.9	989.5
47.29	11.06	5.38	1079.3	989.2
47.3	11.06	5.38	1079.8	989.4
47.31	11.05	5.38	1079.3	989.4
47.32	11.05	5.38	1078.9	989.4
47.33	11.06	5.38	1079.8	989.4
47.34	11.06	5.38	1079.9	989.1
47.35	11.06	5.38	1079.6	989.5
47.36	11.07	5.38	1078.9	989.4
47.37	11.06	5.38	1079.0	989.2
47.38	11.05	5.37	1079.1	989.0
47.39	11.07	5.38	1079.5	989.3
47.4	11.05	5.37	1078.9	989.4
47.41	11.05	5.38	1078.4	988.9
47.42	11.06	5.38	1078.6	989.0
47.43	11.06	5.38	1078.7	989.3
47.44	11.06	5.38	1078.7	988.9
47.45	11.06	5.38	1078.3	989.1
47.46	11.07	5.38	1079.0	988.7
47.47	11.05	5.38	1078.8	988.9
47.48	11.06	5.38	1078.6	988.7
47.49	11.05	5.38	1078.0	988.9
47.5	11.05	5.37	1078.4	988.8
47.51	11.04	5.37	1078.7	988.8
47.52	11.07	5.38	1078.5	988.7
47.53	11.06	5.38	1078.9	988.8
47.54	11.06	5.38	1078.4	988.6
47.55	11.07	5.38	1079.0	988.6
47.56	11.05	5.37	1078.7	988.7
47.57	11.05	5.38	1079.1	988.8
47.58	11.07	5.38	1078.4	988.5
47.59	11.05	5.38	1079.2	988.7
47.6	11.06	5.37	1078.8	988.6
47.61	11.05	5.37	1078.7	988.5
47.62	11.07	5.38	1078.4	988.4
47.63	11.07	5.38	1079.4	988.8
47.64	11.07	5.38	1078.9	988.4
47.65	11.06	5.38	1078.6	988.6
47.66	11.07	5.38	1078.8	988.6
47.67	11.05	5.38	1078.3	988.6
47.68	11.07	5.38	1078.8	988.9
47.69	11.06	5.38	1078.5	989.0
47.7	11.07	5.38	1078.7	988.8
47.71	11.05	5.37	1078.3	988.8
47.72	11.06	5.38	1078.7	988.8
47.73	11.06	5.38	1078.4	988.9
47.74	11.06	5.37	1078.2	988.7
47.75	11.05	5.38	1078.3	988.7
47.76	11.06	5.37	1078.2	988.8
47.77	11.06	5.38	1078.7	988.7
47.78	11.06	5.37	1078.3	988.6
47.79	11.05	5.37	1078.3	988.6
47.8	11.06	5.38	1078.0	988.6
47.81	11.05	5.37	1078.4	988.9
47.82	11.06	5.38	1078.4	988.6
47.83	11.06	5.38	1078.5	988.7
47.84	11.05	5.37	1077.6	988.5
47.85	11.06	5.37	1078.1	988.6
47.86	11.05	5.37	1078.2	988.5
47.87	11.06	5.37	1077.8	988.3
47.88	11.06	5.37	1077.8	988.4
47.89	11.05	5.37	1078.0	988.5
47.9	11.07	5.37	1078.0	988.6
47.91	11.08	5.38	1077.9	988.5
47.92	11.05	5.37	1077.8	988.4
47.93	11.07	5.37	1077.9	988.4
47.94	11.05	5.37	1078.1	988.5
47.95	11.05	5.37	1077.6	988.4
47.96	11.06	5.37	1077.8	988.4
47.97	11.06	5.37	1077.5	988.5
47.98	11.06	5.37	1078.0	988.6
47.99	11.06	5.37	1077.9	988.6
48.0	11.06	5.38	1077.8	988.3
48.01	11.07	5.38	1077.7	988.6
48.02	11.06	5.37	1077.1	988.6
48.03	11.07	5.38	1077.8	988.7
48.04	11.06	5.37	1077.4	988.2
48.05	11.07	5.38	1077.7	988.4
48.06	11.06	5.37	1076.9	988.4
48.07	11.07	5.37	1077.7	988.3
48.08	11.06	5.37	1077.5	988.2
48.09	11.07	5.38	1078.1	988.2
48.1	11.05	5.37	1077.1	988.2
48.11	11.06	5.37	1077.6	988.2
48.12	11.06	5.37	1077.6	988.2
48.13	11.06	5.37	1077.4	988.0
48.14	11.06	5.37	1077.6	988.3
48.15	11.05	5.37	1077.6	988.2
48.16	11.06	5.37	1078.0	988.0
48.17	11.06	5.37	1077.2	988.2
48.18	11.06	5.37	1078.0	988.4
48.19	11.06	5.38	1076.9	988.2
48.2	11.06	5.37	1077.7	988.0
48.21	11.06	5.38	1077.2	988.2
48.22	11.06	5.37	1077.3	988.1
48.23	11.05	5.37	1076.6	988.3
48.24	11.06	5.37	1077.3	988.3
48.25	11.05	5.37	1077.2	988.0
48.26	11.05	5.37	1077.1	987.7
48.27	11.05	5.37	1077.2	988.1
48.28	11.06	5.37	1076.8	987.8
48.29	11.05	5.37	1077.3	988.3
48.3	11.07	5.38	1077.1	988.0
48.31	11.06	5.37	1076.6	987.9
48.32	11.06	5.37	1075.8	988.0
48.33	11.05	5.37	1076.9	988.1
48.34	11.05	5.37	1076.8	988.0
48.35	11.05	5.37	1076.1	987.9
48.36	11.05	5.37	1075.8	987.6
48.37	11.06	5.37	1076.8	987.8
48.38	11.06	5.37	1077.1	987.9
48.39	11.06	5.37	1077.1	987.9
48.4	11.07	5.37	1077.5	987.8
48.41	11.06	5.37	1076.5	987.8
48.42	11.05	5.37	1076.3	988.0
48.43	11.06	5.37	1076.4	987.9
48.44	11.06	5.37	1076.0	987.9
48.45	11.07	5.37	1076.0	988.0
48.46	11.05	5.37	1076.3	987.7
48.47	11.06	5.37	1076.6	987.9
48.48	11.05	5.37	1076.4	988.0
48.49	11.06	5.37	1076.4	988.1
48.5	11.06	5.37	1076.4	987.9
48.51	11.05	5.37	1076.5	987.9
48.52	11.06	5.37	1076.5	987.8
48.53	11.07	5.37	1076.6	987.7
48.54	11.05	5.37	1076.0	987.7
48.55	11.07	5.37	1076.7	987.6
48.56	11.05	5.37	1076.0	987.7
48.57	11.06	5.37	1076.4	987.8
48.58	11.05	5.37	1076.1	987.6
48.59	11.05	5.36	1076.6	987.7
48.6	11.05	5.37	1076.5	987.7
48.61	11.06	5.37	1076.4	987.6
48.62	11.06	5.37	1075.9	987.5
48.63	11.07	5.38	1076.5	987.7
48.64	11.05	5.37	1076.3	987.4
48.65	11.06	5.37	1076.1	987.6
48.66	11.05	5.37	1075.7	987.6
48.67	11.05	5.37	1075.3	987.4
48.68	11.05	5.37	1076.3	987.4
48.69	11.06	5.37	1076.1	987.3
48.7	11.06	5.37	1075.9	987.6
48.71	11.06	5.37	1075.6	987.6
48.72	11.05	5.36	1076.0	987.8
48.73	11.06	5.37	1075.8	987.6
48.74	11.06	5.37	1076.1	987.5
48.75	11.06	5.37	1076.0	987.6
48.76	11.06	5.37	1075.9	987.6
48.77	11.06	5.37	1076.2	987.6
48.78	11.05	5.37	1075.6	987.4
48.79	11.06	5.37	1075.8	987.6
48.8	11.06	5.37	1075.2	987.2
48.81	11.06	5.37	1075.8	987.7
48.82	11.06	5.37	1075.5	987.4
48.83	11.06	5.37	1075.8	987.4
48.84	11.06	5.37	1075.2	987.2
48.85	11.05	5.37	1075.6	987.5
48.86	11.06	5.37	1075.7	987.2
48.87	11.06	5.37	1075.6	987.4
48.88	11.06	5.37	1075.8	987.2
48.89	11.06	5.37	1074.9	987.7
48.9	11.05	5.37	1075.8	987.3
48.91	11.06	5.37	1075.6	987.2
48.92	11.06	5.37	1075.0	987.4
48.93	11.05	5.36	1074.7	987.2
48.94	11.07	5.37	1075.1	987.4
48.95	11.06	5.37	1075.4	987.2
48.96	11.06	5.37	1075.8	987.4
48.97	11.06	5.37	1075.2	987.3
48.98	11.07	5.37	1075.1	987.2
48.99	11.05	5.37	1075.6	987.3
49.0	11.06	5.37	1074.8	987.2
49.01	11.05	5.37	1075.3	987.2
49.02	11.07	5.37	1074.6	987.4
49.03	11.06	5.36	1075.3	987.2
49.04	11.07	5.37	1074.7	987.4
49.05	11.05	5.36	1074.9	987.2
49.06	11.06	5.37	1075.2	987.1
49.07	11.05	5.36	1075.2	987.4
49.08	11.05	5.36	1074.9	987.2
49.09	11.05	5.36	1074.9	987.2
49.1	11.06	5.37	1074.5	987.2
49.11	11.06	5.37	1074.7	987.4
49.12	11.07	5.37	1074.6	987.2
49.13	11.05	5.36	1075.0	987.1
49.14	11.07	5.36	1074.5	987.1
49.15	11.07	5.37	1074.0	987.1
49.16	11.06	5.36	1074.2	987.1
49.17	11.06	5.37	1074.5	987.0
49.18	11.07	5.37	1074.9	987.0
49.19	11.07	5.37	1074.2	986.8
49.2	11.06	5.37	1074.6	987.0
49.21	11.06	5.37	1074.7	986.9
49.22	11.06	5.37	1074.4	987.0
49.23	11.07	5.37	1073.9	987.0
49.24	11.04	5.36	1074.5	986.9
49.25	11.06	5.36	1074.6	987.0
49.26	11.06	5.36	1074.9	986.7
49.27	11.06	5.36	1074.1	987.2
49.28	11.07	5.37	1074.3	987.2
49.29	11.06	5.36	1075.0	987.0
49.3	11.06	5.37	1074.5	986.7
49.31	11.06	5.36	1075.0	987.0
49.32	11.05	5.36	1074.1	987.0
49.33	11.06	5.36	1074.7	987.0
49.34	11.05	5.36	1074.5	987.0
49.35	11.06	5.37	1074.9	987.0
49.36	11.06	5.36	1074.2	987.0
49.37	11.05	5.36	1074.2	987.0
49.38	11.05	5.37	1074.8	986.9
49.39	11.06	5.37	1074.5	987.0
49.4	11.04	5.36	1073.9	986.7
49.41	11.06	5.36	1073.6	987.1
49.42	11.06	5.36	1074.2	986.8
49.43	11.06	5.36	1074.3	986.8
49.44	11.06	5.36	1074.5	986.6
49.45	11.07	5.37	1073.9	986.6
49.46	11.07	5.37	1073.7	986.6
49.47	11.05	5.36	1073.8	986.5
49.48	11.06	5.36	1074.3	986.6
49.49	11.06	5.36	1073.7	986.7
49.5	11.05	5.36	1073.7	986.5
49.51	11.07	5.36	1074.1	986.7
49.52	11.06	5.36	1073.8	986.4
49.53	11.06	5.36	1074.2	986.5
49.54	11.07	5.36	1073.1	986.6
49.55	11.06	5.36	1074.2	986.4
49.56	11.07	5.37	1074.1	986.4
49.57	11.06	5.36	1074.2	986.4
49.58	11.05	5.36	1073.6	986.2
49.59	11.06	5.37	1074.2	986.4
49.6	11.05	5.36	1073.9	986.5
49.61	11.05	5.36	1073.8	986.6
49.62	11.06	5.36	1074.1	986.5
49.63	11.05	5.36	1073.6	986.4
49.64	11.06	5.36	1074.0	986.3
49.65	11.06	5.36	1073.8	986.3
49.66	11.07	5.36	1073.5	986.5
49.67	11.05	5.36	1073.6	986.2
49.68	11.06	5.36	1074.0	986.2
49.69	11.05	5.36	1073.9	986.5
49.7	11.06	5.36	1073.5	986.2
49.71	11.05	5.36	1073.5	986.3
49.72	11.07	5.37	1073.4	986.3
49.73	11.05	5.36	1073.9	986.1
49.74	11.07	5.36	1073.4	986.1
49.75	11.06	5.36	1073.8	986.1
49.76	11.05	5.36	1072.2	985.8
49.77	11.05	5.36	1074.1	986.0
49.78	11.05	5.36	1072.9	986.1
49.79	11.06	5.36	1073.6	986.5
49.8	11.06	5.36	1072.4	986.2
49.81	11.05	5.36	1073.5	986.2
49.82	11.06	5.36	1073.2	986.1
49.83	11.05	5.36	1073.2	986.2
49.84	11.06	5.36	1072.9	985.8
49.85	11.06	5.36	1073.8	986.1
49.86	11.05	5.36	1073.6	986.0
49.87	11.06	5.36	1073.6	986.2
49.88	11.06	5.36	1073.4	986.2
49.89	11.06	5.36	1073.0	986.1
49.9	11.06	5.36	1073.7	986.1
49.91	11.06	5.36	1073.5	986.0
49.92	11.07	5.36	1073.1	986.2
49.93	11.06	5.36	1072.6	986.1
49.94	11.06	5.36	1073.2	986.0
49.95	11.07	5.36	1073.0	986.1
49.96	11.06	5.36	1073.2	986.0
49.97	11.07	5.36	1073.2	986.1
49.98	11.07	5.36	1072.4	986.0
49.99	11.07	5.36	1073.8	986.2
50.0	11.06	5.36	1073.1	986.0
50.01	11.06	5.36	1072.8	985.9
50.02	11.05	5.36	1072.8	985.9
50.03	11.07	5.36	1073.3	986.0
50.04	11.06	5.36	1073.1	985.9
50.05	11.06	5.36	1073.3	985.7
50.06	11.06	5.36	1072.9	985.8
50.07	11.06	5.36	1072.8	985.9
50.08	11.06	5.36	1073.6	985.9
50.09	11.05	5.36	1073.4	985.6
50.1	11.06	5.36	1073.4	985.7
50.11	11.06	5.36	1072.7	986.0
50.12	11.06	5.36	1072.8	985.8
50.13	11.05	5.36	1072.8	986.0
50.14	11.06	5.36	1073.2	985.8
50.15	11.05	5.36	1072.3	986.0
50.16	11.06	5.36	1072.6	986.0
50.17	11.06	5.36	1072.6	985.9
50.18	11.07	5.36	1072.8	985.8
50.19	11.06	5.36	1072.2	985.7
50.2	11.06	5.36	1072.4	986.0
50.21	11.05	5.36	1072.5	985.8
50.22	11.07	5.36	1072.7	985.7
50.23	11.06	5.36	1072.2	985.8
50.24	11.05	5.36	1071.7	985.8
50.25	11.05	5.36	1073.0	985.7
50.26	11.07	5.36	1072.0	985.9
50.27	11.06	5.36	1072.8	985.8
50.28	11.06	5.36	1071.7	985.9
50.29	11.06	5.36	1072.2	985.7
50.3	11.05	5.36	1072.7	986.0
50.31	11.06	5.36	1072.5	985.8
50.32	11.06	5.36	1072.1	985.8
50.33	11.06	5.36	1072.2	985.7
50.34	11.06	5.36	1072.2	985.5
50.35	11.06	5.36	1072.1	985.8
50.36	11.07	5.36	1072.0	985.7
50.37	11.06	5.36	1071.6	985.7
50.38	11.06	5.36	1072.4	985.9
50.39	11.06	5.36	1072.5	985.7
50.4	11.06	5.36	1072.2	985.6
50.41	11.05	5.35	1072.0	986.0
50.42	11.07	5.36	1072.2	985.5
50.43	11.06	5.36	1072.1	985.8
50.44	11.07	5.36	1071.7	985.5
50.45	11.05	5.36	1072.4	985.5
50.46	11.05	5.35	1071.4	985.5
50.47	11.06	5.36	1071.5	985.5
50.48	11.05	5.35	1071.6	985.2
50.49	11.06	5.36	1071.9	985.7
50.5	11.07	5.36	1071.8	985.4
50.51	11.06	5.36	1072.0	985.6
50.52	11.06	5.36	1071.6	985.6
50.53	11.05	5.35	1071.9	985.4
50.54	11.05	5.35	1071.8	985.6
50.55	11.06	5.36	1072.1	985.5
50.56	11.05	5.35	1072.1	985.4
50.57	11.07	5.36	1072.2	985.4
50.58	11.06	5.36	1071.6	985.3
50.59	11.05	5.35	1071.4	985.6
50.6	11.06	5.36	1071.6	985.7
50.61	11.06	5.35	1071.9	985.5
50.62	11.05	5.35	1070.8	985.6
50.63	11.06	5.36	1071.3	985.5
50.64	11.06	5.36	1072.3	985.2
50.65	11.06	5.36	1072.0	985.6
50.66	11.05	5.35	1071.8	985.2
50.67	11.06	5.36	1071.4	985.4
50.68	11.06	5.36	1071.5	985.5
50.69	11.06	5.35	1071.6	985.1
50.7	11.05	5.35	1072.1	985.3
50.71	11.06	5.36	1072.3	985.2
50.72	11.06	5.36	1071.3	985.2
50.73	11.07	5.36	1072.3	985.2
50.74	11.06	5.36	1071.8	985.4
50.75	11.06	5.35	1071.5	985.2
50.76	11.05	5.35	1071.0	985.4
50.77	11.06	5.35	1072.0	985.3
50.78	11.06	5.36	1072.0	985.2
50.79	11.06	5.35	1072.0	985.2
50.8	11.06	5.36	1071.6	985.3
50.81	11.07	5.36	1071.5	985.5
50.82	11.05	5.35	1071.9	985.2
50.83	11.07	5.36	1071.3	985.2
50.84	11.06	5.35	1070.8	985.2
50.85	11.05	5.35	1071.0	985.2
50.86	11.06	5.36	1071.7	985.1
50.87	11.06	5.35	1071.6	985.4
50.88	11.06	5.36	1071.5	985.1
50.89	11.07	5.36	1070.7	985.2
50.9	11.06	5.35	1071.3	985.2
50.91	11.06	5.36	1071.4	985.4
50.92	11.06	5.35	1070.5	985.2
50.93	11.06	5.36	1070.8	985.3
50.94	11.07	5.36	1070.5	985.4
50.95	11.06	5.36	1071.2	985.0
50.96	11.07	5.36	1070.4	985.6
50.97	11.05	5.36	1070.3	985.3
50.98	11.06	5.35	1070.1	985.2
50.99	11.06	5.36	1070.9	985.4
51.0	11.06	5.35	1070.6	985.4
51.01	11.07	5.36	1070.8	985.2
51.02	11.07	5.36	1070.4	985.2
51.03	11.06	5.36	1070.8	985.3
51.04	11.07	5.36	1071.0	985.1
51.05	11.06	5.35	1070.7	985.3
51.06	11.06	5.35	1070.7	985.0
51.07	11.05	5.35	1070.6	985.3
51.08	11.05	5.35	1070.6	985.0
51.09	11.06	5.36	1070.6	985.3
51.1	11.06	5.35	1070.6	985.0
51.11	11.06	5.36	1070.1	985.3
51.12	11.06	5.35	1070.8	984.8
51.13	11.05	5.35	1070.6	984.9
51.14	11.06	5.35	1070.4	985.0
51.15	11.05	5.35	1070.4	985.1
51.16	11.07	5.35	1070.8	985.2
51.17	11.06	5.36	1071.1	984.9
51.18	11.06	5.35	1070.6	985.0
51.19	11.06	5.35	1070.1	985.0
51.2	11.06	5.35	1070.7	985.0
51.21	11.05	5.35	1070.5	985.2
51.22	11.07	5.36	1070.2	984.7
51.23	11.05	5.35	1070.2	984.8
51.24	11.06	5.35	1069.9	984.8
51.25	11.06	5.35	1070.6	985.0
51.26	11.06	5.35	1070.0	985.1
51.27	11.06	5.35	1070.5	984.9
51.28	11.05	5.35	1069.5	984.9
51.29	11.06	5.35	1070.8	985.0
51.3	11.06	5.36	1070.3	984.8
51.31	11.06	5.35	1070.7	984.9
51.32	11.07	5.35	1070.2	984.9
51.33	11.05	5.35	1070.1	985.1
51.34	11.05	5.35	1070.4	984.7
51.35	11.06	5.35	1069.9	984.7
51.36	11.05	5.35	1069.6	984.9
51.37	11.07	5.35	1069.7	985.0
51.38	11.07	5.36	1070.0	985.0
51.39	11.06	5.35	1069.7	984.8
51.4	11.06	5.35	1069.7	984.7
51.41	11.06	5.35	1070.2	984.8
51.42	11.06	5.35	1070.4	984.9
51.43	11.06	5.35	1070.0	985.0
51.44	11.06	5.35	1069.5	985.0
51.45	11.07	5.36	1069.6	984.8
51.46	11.05	5.35	1069.6	984.7
51.47	11.07	5.35	1070.2	984.6
51.48	11.06	5.35	1069.8	984.7
51.49	11.07	5.35	1069.2	984.6
51.5	11.06	5.36	1069.3	984.7
51.51	11.06	5.35	1069.7	984.6
51.52	11.06	5.35	1069.9	984.4
51.53	11.07	5.35	1069.4	984.9
51.54	11.06	5.35	1069.0	984.9
51.55	11.06	5.35	1070.0	984.6
51.56	11.06	5.35	1069.8	984.9
51.57	11.06	5.36	1069.4	984.5
51.58	11.07	5.35	1069.1	984.8
51.59	11.07	5.35	1069.6	984.7
51.6	11.04	5.35	1069.2	984.7
51.61	11.06	5.35	1068.8	984.7
51.62	11.06	5.35	1068.9	984.6
51.63	11.06	5.35	1069.3	984.8
51.64	11.05	5.35	1069.2	984.6
51.65	11.06	5.35	1069.3	984.6
51.66	11.07	5.35	1069.4	984.7
51.67	11.06	5.36	1069.4	984.9
51.68	11.05	5.35	1069.1	984.6
51.69	11.06	5.35	1069.4	984.6
51.7	11.06	5.35	1069.4	984.7
51.71	11.06	5.35	1068.7	984.6
51.72	11.07	5.35	1069.4	984.9
51.73	11.06	5.35	1069.6	984.9
51.74	11.07	5.35	1069.0	984.8
51.75	11.06	5.35	1069.0	984.7
51.76	11.06	5.35	1069.0	984.7
51.77	11.07	5.35	1069.4	984.6
51.78	11.07	5.35	1069.3	984.7
51.79	11.06	5.35	1068.8	984.6
51.8	11.07	5.35	1068.7	984.8
51.81	11.06	5.35	1069.4	984.7
51.82	11.07	5.35	1069.1	984.7
51.83	11.06	5.35	1069.2	984.6
51.84	11.07	5.35	1068.9	984.6
51.85	11.06	5.35	1069.6	984.7
51.86	11.07	5.35	1069.1	984.6
51.87	11.06	5.35	1069.5	984.5
51.88	11.06	5.35	1069.5	984.4
51.89	11.06	5.35	1069.2	984.6
51.9	11.06	5.35	1069.4	984.5
51.91	11.06	5.35	1069.7	984.7
51.92	11.06	5.35	1069.2	984.3
51.93	11.06	5.35	1069.1	984.6
51.94	11.06	5.35	1069.7	984.5
51.95	11.06	5.35	1069.2	984.8
51.96	11.06	5.35	1068.9	984.4
51.97	11.06	5.35	1068.5	985.0
51.98	11.06	5.35	1069.0	984.8
51.99	11.06	5.35	1068.8	984.7
52.0	11.06	5.35	1068.8	984.6
52.01	11.06	5.35	1068.2	984.5
52.02	11.07	5.35	1068.2	984.6
52.03	11.07	5.35	1069.3	984.5
52.04	11.06	5.35	1068.7	984.6
52.05	11.06	5.35	1068.9	984.6
52.06	11.05	5.34	1068.3	984.5
52.07	11.06	5.35	1069.0	984.6
52.08	11.05	5.35	1068.8	984.4
52.09	11.07	5.35	1069.0	984.3
52.1	11.06	5.35	1068.0	984.4
52.11	11.07	5.35	1068.2	984.4
52.12	11.06	5.35	1068.1	984.5
52.13	11.06	5.35	1068.5	984.4
52.14	11.06	5.35	1068.2	984.3
52.15	11.06	5.35	1068.6	984.5
52.16	11.06	5.35	1068.5	984.4
52.17	11.06	5.35	1068.6	984.6
52.18	11.05	5.35	1068.7	984.2
52.19	11.06	5.35	1068.1	984.3
52.2	11.05	5.35	1068.3	984.4
52.21	11.06	5.35	1068.5	984.4
52.22	11.05	5.35	1068.1	984.4
52.23	11.07	5.35	1067.7	984.3
52.24	11.06	5.35	1068.6	984.4
52.25	11.07	5.35	1068.4	984.4
52.26	11.05	5.35	1068.1	984.4
52.27	11.06	5.34	1067.3	984.3
52.28	11.06	5.35	1068.5	984.2
52.29	11.06	5.35	1068.0	984.5
52.3	11.06	5.35	1068.2	984.4
52.31	11.07	5.35	1067.8	984.4
52.32	11.05	5.34	1068.1	984.5
52.33	11.06	5.35	1068.0	984.4
52.34	11.06	5.35	1068.2	984.5
52.35	11.06	5.35	1067.9	984.4
52.36	11.06	5.35	1067.9	984.1
52.37	11.05	5.34	1068.0	984.4
52.38	11.05	5.34	1067.6	984.5
52.39	11.06	5.35	1067.7	984.5
52.4	11.06	5.35	1066.9	984.4
52.41	11.06	5.35	1067.7	984.5
52.42	11.06	5.35	1067.6	984.2
52.43	11.05	5.34	1067.6	984.4
52.44	11.06	5.35	1067.4	984.3
52.45	11.06	5.35	1067.5	984.3
52.46	11.07	5.35	1067.9	984.2
52.47	11.06	5.35	1068.0	984.2
52.48	11.06	5.35	1067.1	984.1
52.49	11.06	5.35	1066.9	984.2
52.5	11.06	5.34	1068.1	984.1
52.51	11.05	5.34	1067.6	984.3
52.52	11.07	5.35	1067.9	984.0
52.53	11.05	5.34	1068.0	984.1
52.54	11.06	5.34	1067.7	983.9
52.55	11.05	5.35	1067.8	983.9
52.56	11.06	5.35	1067.9	984.1
52.57	11.06	5.35	1067.6	984.0
52.58	11.07	5.34	1066.9	984.2
52.59	11.05	5.35	1067.9	984.0
52.6	11.06	5.35	1067.3	984.3
52.61	11.05	5.35	1067.2	984.0
52.62	11.06	5.35	1067.3	983.8
52.63	11.06	5.35	1067.6	983.8
52.64	11.06	5.35	1067.2	983.8
52.65	11.06	5.35	1067.3	984.0
52.66	11.06	5.35	1066.5	983.9
52.67	11.05	5.34	1067.4	984.0
52.68	11.06	5.35	1067.6	984.2
52.69	11.05	5.34	1067.5	984.0
52.7	11.06	5.35	1066.8	984.0
52.71	11.05	5.34	1067.1	984.0
52.72	11.06	5.34	1067.1	983.7
52.73	11.05	5.34	1068.2	984.0
52.74	11.06	5.35	1067.2	983.6
52.75	11.05	5.34	1066.7	983.7
52.76	11.06	5.34	1067.5	983.8
52.77	11.05	5.34	1067.2	983.9
52.78	11.06	5.35	1067.3	983.9
52.79	11.06	5.34	1066.7	983.7
52.8	11.06	5.35	1067.2	983.8
52.81	11.06	5.35	1067.8	983.8
52.82	11.06	5.35	1067.2	983.8
52.83	11.07	5.35	1067.8	983.8
52.84	11.05	5.34	1066.8	983.7
52.85	11.07	5.35	1067.4	984.0
52.86	11.05	5.34	1067.3	983.8
52.87	11.06	5.34	1067.3	983.6
52.88	11.06	5.35	1066.5	983.8
52.89	11.07	5.35	1067.4	983.7
52.9	11.05	5.34	1066.9	984.0
52.91	11.06	5.35	1067.0	983.7
52.92	11.05	5.35	1066.3	984.0
52.93	11.07	5.35	1067.0	983.7
52.94	11.05	5.34	1067.1	983.6
52.95	11.07	5.34	1067.2	983.8
52.96	11.07	5.35	1067.0	983.7
52.97	11.07	5.35	1066.8	984.0
52.98	11.07	5.35	1066.8	983.8
52.99	11.06	5.34	1066.9	983.9
53.0	11.07	5.35	1066.8	983.9
53.01	11.06	5.34	1066.9	983.8
53.02	11.05	5.34	1066.8	983.8
53.03	11.08	5.35	1066.6	984.1
53.04	11.05	5.34	1066.7	984.1
53.05	11.07	5.35	1066.2	983.9
53.06	11.05	5.34	1066.8	983.6
53.07	11.06	5.35	1067.0	983.7
53.08	11.07	5.35	1066.6	983.6
53.09	11.06	5.34	1066.9	983.6
53.1	11.07	5.34	1066.6	983.5
53.11	11.06	5.34	1066.8	983.6
53.12	11.07	5.35	1066.6	983.6
53.13	11.05	5.34	1066.2	983.6
53.14	11.07	5.35	1066.2	983.6
53.15	11.05	5.34	1066.5	983.6
53.16	11.06	5.35	1066.6	983.5
53.17	11.07	5.35	1066.5	983.6
53.18	11.05	5.34	1065.8	983.6
53.19	11.07	5.35	1066.4	983.8
53.2	11.06	5.34	1066.3	983.4
53.21	11.06	5.35	1066.4	983.6
53.22	11.06	5.34	1066.2	983.7
53.23	11.05	5.34	1066.5	983.7
53.24	11.07	5.35	1066.7	983.8
53.25	11.05	5.35	1066.0	983.8
53.26	11.07	5.34	1066.2	983.9
53.27	11.06	5.34	1066.0	983.8
53.28	11.06	5.34	1066.3	983.8
53.29	11.06	5.34	1066.7	983.7
53.3	11.08	5.35	1066.7	983.6
53.31	11.07	5.35	1065.9	983.6
53.32	11.07	5.34	1066.3	983.6
53.33	11.06	5.34	1066.3	983.5
53.34	11.06	5.34	1066.5	983.6
53.35	11.05	5.34	1066.3	983.7
53.36	11.06	5.34	1066.2	983.5
53.37	11.06	5.34	1066.4	983.5
53.38	11.06	5.34	1066.6	983.6
53.39	11.05	5.34	1066.5	983.8
53.4	11.06	5.34	1065.6	983.5
53.41	11.05	5.34	1066.3	983.4
53.42	11.06	5.34	1065.9	983.4
53.43	11.06	5.34	1066.3	983.5
53.44	11.06	5.34	1065.6	983.6
53.45	11.06	5.34	1066.1	983.6
53.46	11.06	5.34	1066.2	983.6
53.47	11.06	5.34	1066.3	983.5
53.48	11.07	5.35	1066.0	983.5
53.49	11.06	5.34	1065.6	983.6
53.5	11.06	5.34	1065.9	983.6
53.51	11.06	5.34	1066.1	983.5
53.52	11.05	5.34	1066.3	983.4
53.53	11.06	5.34	1065.9	983.6
53.54	11.05	5.34	1065.9	983.6
53.55	11.07	5.34	1065.8	983.4
53.56	11.05	5.34	1066.1	983.6
53.57	11.06	5.34	1065.6	983.6
53.58	11.05	5.34	1065.9	983.4
53.59	11.06	5.34	1065.6	983.5
53.6	11.05	5.34	1065.7	983.4
53.61	11.06	5.34	1065.1	983.6
53.62	11.06	5.34	1065.5	983.3
53.63	11.06	5.34	1066.0	983.5
53.64	11.06	5.34	1065.8	983.3
53.65	11.06	5.34	1065.7	983.5
53.66	11.06	5.34	1065.0	983.6
53.67	11.06	5.34	1065.4	983.3
53.68	11.06	5.34	1065.2	983.4
53.69	11.07	5.34	1065.4	983.8
53.7	11.06	5.34	1065.0	983.5
53.71	11.06	5.34	1065.7	983.5
53.72	11.06	5.34	1065.4	983.2
53.73	11.07	5.34	1065.8	983.5
53.74	11.06	5.34	1065.1	983.2
53.75	11.06	5.34	1065.4	983.3
53.76	11.05	5.34	1065.3	983.3
53.77	11.05	5.34	1065.2	983.2
53.78	11.06	5.34	1065.2	983.2
53.79	11.06	5.35	1064.5	982.8
53.8	11.06	5.34	1065.3	983.0
53.81	11.07	5.34	1065.1	983.2
53.82	11.06	5.34	1065.0	983.0
53.83	11.05	5.34	1064.8	983.2
53.84	11.07	5.34	1065.4	982.9
53.85	11.05	5.34	1065.1	982.9
53.86	11.07	5.34	1065.0	983.0
53.87	11.06	5.34	1064.4	982.8
53.88	11.06	5.34	1065.4	983.0
53.89	11.06	5.34	1064.8	983.0
53.9	11.06	5.34	1065.3	983.0
53.91	11.06	5.34	1065.0	983.0
53.92	11.06	5.34	1064.9	983.0
53.93	11.05	5.34	1065.5	982.9
53.94	11.06	5.34	1065.0	982.9
53.95	11.05	5.34	1065.0	983.0
53.96	11.06	5.34	1064.7	983.1
53.97	11.07	5.35	1065.3	982.9
53.98	11.06	5.34	1065.3	983.1
53.99	11.05	5.34	1065.3	983.0
54.0	11.06	5.34	1065.1	982.8
54.01	11.06	5.34	1065.4	983.0
54.02	11.06	5.34	1065.4	982.9
54.03	11.06	5.34	1065.0	982.8
54.04	11.07	5.34	1064.9	983.0
54.05	11.06	5.34	1064.8	982.8
54.06	11.06	5.34	1065.2	982.7
54.07	11.06	5.34	1065.4	982.5
54.08	11.07	5.34	1065.2	982.5
54.09	11.06	5.34	1064.8	982.8
54.1	11.06	5.34	1065.5	982.8
54.11	11.07	5.34	1065.0	982.8
54.12	11.05	5.34	1065.2	983.0
54.13	11.06	5.34	1064.3	982.9
54.14	11.06	5.34	1064.5	982.8
54.15	11.06	5.34	1064.8	982.8
54.16	11.06	5.34	1064.6	982.9
54.17	11.05	5.34	1064.7	982.9
54.18	11.05	5.34	1064.8	982.5
54.19	11.06	5.34	1064.7	982.8
54.2	11.07	5.34	1064.8	982.8
54.21	11.07	5.34	1065.2	982.8
54.22	11.05	5.34	1064.2	982.9
54.23	11.06	5.34	1065.0	982.8
54.24	11.04	5.34	1064.3	982.6
54.25	11.05	5.34	1064.7	982.6
54.26	11.06	5.34	1064.1	982.7
54.27	11.06	5.34	1064.5	982.7
54.28	11.05	5.34	1064.5	982.8
54.29	11.07	5.34	1064.6	982.6
54.3	11.06	5.34	1064.5	982.6
54.31	11.06	5.34	1064.6	982.7
54.32	11.07	5.34	1064.7	982.9
54.33	11.06	5.34	1064.1	982.6
54.34	11.05	5.34	1064.9	982.7
54.35	11.06	5.34	1064.1	982.8
54.36	11.05	5.34	1064.7	982.6
54.37	11.06	5.34	1064.7	982.7
54.38	11.06	5.34	1064.6	982.6
54.39	11.06	5.34	1064.0	982.8
54.4	11.06	5.34	1064.5	982.7
54.41	11.06	5.34	1064.7	982.8
54.42	11.06	5.34	1064.7	982.7
54.43	11.06	5.34	1064.5	982.7
54.44	11.06	5.34	1064.4	982.8
54.45	11.06	5.34	1064.4	982.8
54.46	11.06	5.34	1064.6	982.7
54.47	11.06	5.34	1064.6	982.6
54.48	11.06	5.34	1063.7	982.9
54.49	11.06	5.34	1064.6	982.8
54.5	11.07	5.34	1064.5	982.6
54.51	11.06	5.34	1064.8	982.5
54.52	11.05	5.34	1064.0	982.8
54.53	11.06	5.34	1064.2	982.8
54.54	11.06	5.34	1064.3	982.5
54.55	11.06	5.34	1064.1	982.6
54.56	11.07	5.34	1063.7	982.7
54.57	11.05	5.34	1064.1	982.7
54.58	11.06	5.34	1064.2	982.6
54.59	11.06	5.34	1064.2	982.6
54.6	11.06	5.34	1064.6	982.7
54.61	11.06	5.34	1063.8	982.7
54.62	11.06	5.34	1064.2	982.6
54.63	11.05	5.33	1064.0	982.5
54.64	11.07	5.34	1063.9	982.4
54.65	11.05	5.33	1063.7	982.3
54.66	11.06	5.34	1064.2	982.6
54.67	11.07	5.34	1064.1	982.4
54.68	11.07	5.34	1064.0	982.5
54.69	11.06	5.34	1063.8	982.6
54.7	11.06	5.34	1064.2	982.3
54.71	11.06	5.34	1064.3	982.6
54.72	11.06	5.34	1064.0	982.3
54.73	11.06	5.34	1064.2	982.5
54.74	11.06	5.34	1063.5	982.5
54.75	11.05	5.34	1063.9	982.3
54.76	11.05	5.34	1063.7	982.3
54.77	11.07	5.34	1064.2	982.2
54.78	11.06	5.34	1063.3	982.4
54.79	11.06	5.34	1063.8	982.3
54.8	11.05	5.33	1063.3	982.4
54.81	11.06	5.33	1063.9	982.5
54.82	11.07	5.34	1063.1	982.4
54.83	11.05	5.34	1063.4	982.4
54.84	11.06	5.34	1063.7	982.4
54.85	11.07	5.34	1063.4	982.2
54.86	11.06	5.33	1063.4	982.3
54.87	11.07	5.34	1063.4	982.0
54.88	11.05	5.33	1063.8	982.4
54.89	11.05	5.34	1063.5	982.2
54.9	11.06	5.34	1063.4	982.1
54.91	11.07	5.34	1063.4	982.2
54.92	11.06	5.34	1063.7	982.2
54.93	11.05	5.33	1063.2	982.1
54.94	11.04	5.33	1063.1	982.0
54.95	11.05	5.33	1062.9	981.9
54.96	11.05	5.34	1063.7	982.0
54.97	11.06	5.34	1063.6	982.2
54.98	11.05	5.34	1063.3	982.0
54.99	11.05	5.33	1063.0	982.1
55.0	11.06	5.34	1062.8	982.1
55.01	11.06	5.34	1063.4	982.2
55.02	11.06	5.34	1063.2	982.0
55.03	11.06	5.33	1063.2	982.0
55.04	11.06	5.34	1062.4	982.2
55.05	11.06	5.34	1063.3	982.1
55.06	11.06	5.34	1063.0	981.9
55.07	11.07	5.34	1063.2	982.2
55.08	11.06	5.34	1062.6	982.0
55.09	11.06	5.34	1062.9	982.2
55.1	11.05	5.34	1063.2	982.0
55.11	11.07	5.34	1063.0	982.2
55.12	11.06	5.33	1062.7	982.1
55.13	11.07	5.34	1062.6	982.1
55.14	11.06	5.34	1062.8	982.0
55.15	11.08	5.34	1062.9	982.0
55.16	11.06	5.34	1063.0	982.0
55.17	11.06	5.34	1062.4	981.8
55.18	11.06	5.33	1063.1	981.7
55.19	11.05	5.33	1063.0	981.9
55.2	11.07	5.34	1062.7	981.8
55.21	11.06	5.34	1062.6	981.9
55.22	11.06	5.34	1063.0	981.9
55.23	11.07	5.34	1063.1	981.9
55.24	11.05	5.33	1062.8	982.0
55.25	11.06	5.34	1062.4	981.7
55.26	11.07	5.34	1062.2	982.0
55.27	11.06	5.34	1062.7	981.6
55.28	11.07	5.34	1062.8	981.7
55.29	11.05	5.33	1062.6	981.8
55.3	11.07	5.34	1061.9	981.7
55.31	11.06	5.33	1062.9	982.0
55.32	11.06	5.34	1062.7	981.7
55.33	11.06	5.33	1063.0	981.8
55.34	11.08	5.34	1062.0	981.7
55.35	11.05	5.33	1062.4	981.7
55.36	11.07	5.34	1062.4	981.9
55.37	11.05	5.33	1062.0	981.5
55.38	11.06	5.34	1062.4	981.7
55.39	11.07	5.34	1062.3	981.7
55.4	11.06	5.34	1062.8	981.6
55.41	11.05	5.34	1062.3	981.9
55.42	11.06	5.33	1062.1	981.5
55.43	11.05	5.33	1062.1	982.0
55.44	11.06	5.34	1063.0	981.5
55.45	11.06	5.34	1062.5	981.4
55.46	11.06	5.33	1062.6	981.5
55.47	11.05	5.33	1061.8	981.9
55.48	11.06	5.33	1062.6	981.4
55.49	11.06	5.34	1062.4	981.6
55.5	11.06	5.33	1062.4	981.4
55.51	11.05	5.33	1061.7	981.6
55.52	11.06	5.33	1062.3	981.5
55.53	11.06	5.33	1061.7	981.6
55.54	11.06	5.34	1062.1	981.5
55.55	11.07	5.34	1062.5	981.4
55.56	11.06	5.33	1062.2	981.5
55.57	11.06	5.34	1062.3	981.5
55.58	11.06	5.33	1062.0	981.3
55.59	11.06	5.33	1062.3	981.3
55.6	11.06	5.33	1061.6	981.4
55.61	11.06	5.33	1062.4	981.5
55.62	11.06	5.33	1062.4	981.7
55.63	11.07	5.34	1062.3	981.6
55.64	11.05	5.33	1061.9	981.3
55.65	11.06	5.33	1062.1	981.5
55.66	11.06	5.34	1062.3	981.6
55.67	11.06	5.33	1062.4	981.4
55.68	11.06	5.33	1061.2	981.2
55.69	11.06	5.33	1061.3	981.3
55.7	11.06	5.33	1061.9	981.4
55.71	11.06	5.33	1061.6	981.6
55.72	11.05	5.33	1062.4	981.4
55.73	11.07	5.34	1061.6	981.6
55.74	11.05	5.33	1062.4	981.2
55.75	11.06	5.33	1062.1	981.4
55.76	11.05	5.33	1061.2	981.2
55.77	11.06	5.33	1061.1	981.5
55.78	11.06	5.33	1062.4	981.2
55.79	11.07	5.33	1061.9	981.4
55.8	11.06	5.33	1061.7	981.2
55.81	11.06	5.33	1061.8	981.5
55.82	11.06	5.33	1061.7	981.3
55.83	11.07	5.34	1062.0	981.4
55.84	11.05	5.33	1061.9	981.3
55.85	11.06	5.33	1061.9	981.5
55.86	11.06	5.33	1060.7	981.2
55.87	11.06	5.33	1061.7	981.2
55.88	11.06	5.33	1061.5	981.3
55.89	11.06	5.33	1060.7	981.4
55.9	11.06	5.33	1060.7	981.5
55.91	11.07	5.33	1062.0	981.3
55.92	11.06	5.33	1061.9	981.4
55.93	11.07	5.34	1061.8	981.4
55.94	11.06	5.33	1061.3	981.4
55.95	11.05	5.33	1061.3	981.5
55.96	11.06	5.33	1061.6	981.2
55.97	11.06	5.33	1061.4	981.5
55.98	11.06	5.33	1061.4	981.4
55.99	11.06	5.33	1061.3	981.3
56.0	11.06	5.33	1062.0	981.2
56.01	11.06	5.33	1062.2	981.1
56.02	11.06	5.33	1061.5	981.2
56.03	11.06	5.33	1061.2	981.2
56.04	11.06	5.33	1061.8	981.3
56.05	11.06	5.33	1061.3	981.3
56.06	11.07	5.33	1061.3	981.4
56.07	11.06	5.33	1061.2	981.2
56.08	11.05	5.33	1061.5	981.1
56.09	11.06	5.33	1061.2	981.3
56.1	11.06	5.33	1061.2	981.3
56.11	11.06	5.34	1061.1	981.1
56.12	11.07	5.33	1061.1	981.0
56.13	11.05	5.33	1061.4	981.1
56.14	11.07	5.33	1060.8	981.3
56.15	11.05	5.33	1061.2	981.1
56.16	11.05	5.33	1059.8	981.3
56.17	11.06	5.33	1062.0	981.1
56.18	11.05	5.33	1061.1	981.2
56.19	11.06	5.33	1061.4	981.4
56.2	11.06	5.33	1060.9	981.1
56.21	11.05	5.33	1061.1	981.2
56.22	11.06	5.33	1061.8	981.1
56.23	11.05	5.33	1061.2	981.4
56.24	11.06	5.33	1060.3	981.1
56.25	11.07	5.34	1060.6	981.3
56.26	11.06	5.33	1061.1	981.2
56.27	11.07	5.34	1061.0	981.3
56.28	11.06	5.33	1060.8	981.2
56.29	11.06	5.33	1061.3	981.1
56.3	11.06	5.33	1061.1	981.2
56.31	11.06	5.33	1061.0	981.1
56.32	11.05	5.33	1061.2	981.2
56.33	11.06	5.33	1060.5	981.2
56.34	11.05	5.33	1061.2	981.2
56.35	11.06	5.33	1060.8	981.2
56.36	11.06	5.33	1060.8	981.3
56.37	11.07	5.33	1060.1	981.3
56.38	11.05	5.33	1060.6	981.2
56.39	11.06	5.33	1061.3	981.1
56.4	11.05	5.33	1061.1	981.2
56.41	11.06	5.33	1060.9	981.3
56.42	11.07	5.33	1060.5	981.1
56.43	11.05	5.33	1060.6	981.2
56.44	11.05	5.33	1060.7	981.3
56.45	11.07	5.33	1061.0	981.2
56.46	11.05	5.33	1060.5	981.2
56.47	11.07	5.33	1061.0	981.0
56.48	11.06	5.33	1061.2	981.3
56.49	11.06	5.33	1061.0	981.2
56.5	11.05	5.33	1060.6	981.4
56.51	11.05	5.33	1060.9	981.1
56.52	11.05	5.33	1061.2	981.3
56.53	11.07	5.34	1061.1	981.6
56.54	11.06	5.33	1060.7	981.3
56.55	11.06	5.33	1060.9	981.2
56.56	11.07	5.33	1061.0	981.2
56.57	11.05	5.33	1060.4	981.2
56.58	11.07	5.33	1060.2	981.0
56.59	11.07	5.33	1060.3	981.2
56.6	11.07	5.33	1060.7	981.0
56.61	11.06	5.33	1060.6	981.0
56.62	11.06	5.33	1060.8	980.9
56.63	11.05	5.33	1060.0	981.0
56.64	11.06	5.33	1060.7	981.2
56.65	11.06	5.33	1060.6	981.1
56.66	11.06	5.33	1060.8	981.1
56.67	11.06	5.33	1060.1	981.4
56.68	11.07	5.33	1060.1	980.9
56.69	11.05	5.33	1060.4	981.1
56.7	11.06	5.33	1060.3	981.3
56.71	11.06	5.33	1060.0	981.2
56.72	11.06	5.33	1059.6	981.0
56.73	11.06	5.33	1061.0	980.9
56.74	11.06	5.33	1060.3	981.0
56.75	11.06	5.33	1060.6	980.9
56.76	11.07	5.33	1059.9	981.0
56.77	11.05	5.33	1060.2	981.3
56.78	11.06	5.33	1060.5	981.2
56.79	11.06	5.33	1060.7	981.3
56.8	11.06	5.33	1060.3	981.2
56.81	11.06	5.33	1060.1	981.4
56.82	11.06	5.33	1060.1	981.1
56.83	11.06	5.33	1060.3	981.1
56.84	11.07	5.33	1060.6	981.2
56.85	11.06	5.33	1059.7	981.0
56.86	11.05	5.33	1060.3	981.1
56.87	11.05	5.33	1060.3	981.5
56.88	11.07	5.33	1059.6	981.0
56.89	11.06	5.33	1060.0	980.9
56.9	11.05	5.33	1060.0	980.8
56.91	11.05	5.33	1059.5	981.2
56.92	11.07	5.33	1060.0	981.0
56.93	11.06	5.33	1059.3	980.9
56.94	11.06	5.33	1059.7	980.8
56.95	11.05	5.32	1059.8	980.9
56.96	11.05	5.33	1059.8	980.9
56.97	11.06	5.33	1059.3	981.0
56.98	11.05	5.32	1059.4	980.8
56.99	11.06	5.33	1060.1	980.9
57.0	11.05	5.33	1059.6	981.1
57.01	11.05	5.33	1059.2	980.9
57.02	11.06	5.33	1058.9	981.2
57.03	11.06	5.33	1059.6	980.8
57.04	11.07	5.33	1059.9	981.1
57.05	11.06	5.33	1059.4	980.9
57.06	11.05	5.33	1058.8	980.9
57.07	11.06	5.33	1059.0	981.0
57.08	11.05	5.33	1059.6	981.0
57.09	11.07	5.33	1059.4	980.9
57.1	11.06	5.33	1059.0	981.0
57.11	11.06	5.33	1059.1	981.0
57.12	11.06	5.33	1059.9	980.9
57.13	11.06	5.32	1059.2	980.9
57.14	11.05	5.33	1060.0	981.0
57.15	11.06	5.33	1058.9	980.8
57.16	11.05	5.33	1059.6	980.8
57.17	11.06	5.33	1059.0	980.7
57.18	11.05	5.32	1059.3	980.8
57.19	11.07	5.33	1058.9	981.0
57.2	11.05	5.33	1059.7	981.1
57.21	11.05	5.32	1059.7	980.9
57.22	11.05	5.33	1059.3	980.8
57.23	11.06	5.33	1059.4	980.9
57.24	11.05	5.33	1059.3	980.7
57.25	11.05	5.33	1059.8	981.1
57.26	11.04	5.32	1059.2	981.0
57.27	11.07	5.33	1058.6	980.8
57.28	11.06	5.33	1058.5	981.0
57.29	11.06	5.33	1059.3	980.8
57.3	11.05	5.33	1059.0	980.9
57.31	11.07	5.33	1059.2	981.0
57.32	11.06	5.33	1058.5	980.7
57.33	11.06	5.33	1059.3	980.7
57.34	11.06	5.33	1059.1	980.7
57.35	11.06	5.33	1058.9	980.6
57.36	11.07	5.33	1058.6	980.5
57.37	11.06	5.33	1058.6	980.8
57.38	11.06	5.32	1058.8	980.7
57.39	11.05	5.32	1058.5	980.7
57.4	11.07	5.33	1058.3	980.9
57.41	11.06	5.33	1058.5	980.6
57.42	11.07	5.33	1059.2	980.7
57.43	11.05	5.32	1058.6	980.5
57.44	11.06	5.32	1059.1	980.8
57.45	11.06	5.33	1058.8	980.7
57.46	11.06	5.33	1059.1	980.6
57.47	11.06	5.33	1058.9	980.5
57.48	11.05	5.32	1058.8	980.4
57.49	11.05	5.33	1058.6	980.3
57.5	11.07	5.33	1059.1	980.6
57.51	11.05	5.33	1059.1	980.7
57.52	11.06	5.32	1058.8	980.8
57.53	11.05	5.33	1058.8	980.8
57.54	11.07	5.33	1059.2	980.5
57.55	11.06	5.33	1059.2	980.6
57.56	11.05	5.32	1058.4	980.7
57.57	11.05	5.33	1058.8	980.5
57.58	11.06	5.33	1058.1	980.6
57.59	11.07	5.33	1058.8	980.3
57.6	11.06	5.32	1059.0	980.4
57.61	11.05	5.32	1058.6	980.4
57.62	11.05	5.32	1058.3	980.5
57.63	11.05	5.33	1058.7	980.3
57.64	11.08	5.33	1058.8	980.4
57.65	11.06	5.33	1058.9	980.7
57.66	11.05	5.33	1058.3	980.6
57.67	11.05	5.32	1058.5	981.1
57.68	11.06	5.32	1059.1	980.7
57.69	11.06	5.32	1058.4	980.3
57.7	11.06	5.33	1058.0	980.6
57.71	11.05	5.32	1058.5	980.6
57.72	11.06	5.33	1059.1	980.4
57.73	11.06	5.33	1058.3	980.4
57.74	11.06	5.33	1058.0	980.3
57.75	11.06	5.32	1058.1	980.4
57.76	11.05	5.32	1058.6	980.5
57.77	11.07	5.33	1058.2	980.5
57.78	11.06	5.33	1058.4	980.3
57.79	11.06	5.32	1057.8	980.5
57.8	11.05	5.32	1058.1	980.2
57.81	11.06	5.32	1058.4	980.3
57.82	11.05	5.33	1058.8	980.3
57.83	11.07	5.33	1058.6	980.2
57.84	11.06	5.32	1057.9	980.4
57.85	11.07	5.32	1058.6	980.1
57.86	11.05	5.32	1058.6	980.5
57.87	11.06	5.33	1058.6	980.1
57.88	11.06	5.33	1058.1	980.4
57.89	11.06	5.32	1058.6	980.4
57.9	11.06	5.33	1058.1	980.3
57.91	11.06	5.32	1058.1	980.4
57.92	11.06	5.33	1057.1	980.4
57.93	11.06	5.33	1058.2	980.4
57.94	11.05	5.32	1058.4	980.6
57.95	11.05	5.32	1058.7	980.2
57.96	11.06	5.33	1058.3	980.5
57.97	11.06	5.33	1058.3	980.4
57.98	11.07	5.33	1058.7	980.3
57.99	11.06	5.33	1058.3	980.1
58.0	11.05	5.32	1058.9	980.5
58.01	11.06	5.33	1057.8	980.5
58.02	11.06	5.32	1058.2	980.1
58.03	11.05	5.32	1057.9	980.2
58.04	11.06	5.32	1058.7	980.2
58.05	11.05	5.33	1057.6	980.2
58.06	11.06	5.33	1058.4	980.3
58.07	11.05	5.32	1058.6	980.0
58.08	11.06	5.33	1058.6	980.0
58.09	11.06	5.32	1058.3	980.1
58.1	11.06	5.32	1058.3	980.2
58.11	11.06	5.33	1058.8	980.0
58.12	11.07	5.32	1057.7	980.0
58.13	11.06	5.33	1057.9	980.0
58.14	11.06	5.33	1057.6	980.2
58.15	11.05	5.32	1058.1	980.0
58.16	11.07	5.33	1058.0	980.1
58.17	11.06	5.33	1057.9	980.1
58.18	11.07	5.32	1057.7	979.8
58.19	11.05	5.32	1058.1	980.1
58.2	11.06	5.32	1058.0	980.0
58.21	11.06	5.33	1058.1	980.1
58.22	11.06	5.33	1057.3	980.0
58.23	11.05	5.32	1057.4	980.1
58.24	11.07	5.33	1057.6	980.1
58.25	11.07	5.33	1058.0	979.6
58.26	11.06	5.33	1057.9	980.1
58.27	11.05	5.32	1057.2	979.9
58.28	11.06	5.32	1057.7	979.9
58.29	11.05	5.32	1057.7	979.9
58.3	11.07	5.33	1057.5	980.0
58.31	11.05	5.33	1057.2	980.0
58.32	11.06	5.32	1057.4	980.2
58.33	11.05	5.32	1057.5	979.8
58.34	11.07	5.33	1057.5	979.8
58.35	11.06	5.32	1057.6	980.0
58.36	11.05	5.32	1056.9	980.0
58.37	11.06	5.33	1057.2	980.0
58.38	11.06	5.32	1057.9	980.1
58.39	11.06	5.32	1057.2	980.1
58.4	11.06	5.32	1057.2	980.3
58.41	11.06	5.32	1057.8	980.2
58.42	11.07	5.33	1057.3	979.8
58.43	11.07	5.32	1057.0	980.1
58.44	11.05	5.32	1057.4	979.9
58.45	11.06	5.33	1057.1	979.9
58.46	11.06	5.33	1057.5	979.8
58.47	11.06	5.32	1057.4	979.9
58.48	11.05	5.32	1057.3	979.8
58.49	11.06	5.32	1056.6	980.0
58.5	11.06	5.33	1056.9	980.1
58.51	11.07	5.32	1056.9	979.8
58.52	11.06	5.32	1057.1	980.0
58.53	11.06	5.32	1056.5	980.1
58.54	11.06	5.32	1057.0	980.0
58.55	11.07	5.32	1056.6	980.2
58.56	11.06	5.32	1057.1	979.6
58.57	11.07	5.32	1057.6	979.9
58.58	11.05	5.32	1057.0	980.1
58.59	11.05	5.32	1057.1	980.1
58.6	11.05	5.32	1056.8	979.9
58.61	11.07	5.32	1056.9	979.9
58.62	11.06	5.32	1056.4	979.9
58.63	11.06	5.32	1057.0	979.7
58.64	11.05	5.32	1057.0	979.9
58.65	11.07	5.33	1057.2	980.0
58.66	11.06	5.32	1056.7	979.8
58.67	11.05	5.32	1056.9	980.0
58.68	11.07	5.32	1057.2	979.9
58.69	11.06	5.32	1056.8	979.9
58.7	11.06	5.32	1056.8	979.9
58.71	11.06	5.32	1057.2	979.6
58.72	11.06	5.32	1057.4	979.5
58.73	11.05	5.32	1057.5	979.9
58.74	11.06	5.32	1056.8	979.8
58.75	11.06	5.33	1056.1	979.9
58.76	11.05	5.32	1057.1	979.8
58.77	11.06	5.32	1056.6	979.7
58.78	11.07	5.33	1057.5	979.8
58.79	11.06	5.32	1056.3	979.8
58.8	11.06	5.32	1056.8	979.7
58.81	11.07	5.32	1056.8	979.7
58.82	11.06	5.32	1056.4	979.6
58.83	11.06	5.32	1056.5	979.6
58.84	11.06	5.32	1056.4	979.8
58.85	11.05	5.32	1056.7	979.7
58.86	11.07	5.32	1056.7	979.8
58.87	11.05	5.32	1056.5	979.7
58.88	11.07	5.32	1056.3	979.8
58.89	11.07	5.32	1056.7	979.9
58.9	11.06	5.32	1057.0	980.0
58.91	11.04	5.32	1057.0	979.8
58.92	11.06	5.32	1056.4	979.8
58.93	11.06	5.32	1057.0	979.8
58.94	11.07	5.32	1056.7	979.8
58.95	11.06	5.32	1056.7	980.1
58.96	11.07	5.32	1056.4	979.8
58.97	11.06	5.33	1056.3	979.9
58.98	11.06	5.32	1056.5	979.9
58.99	11.05	5.32	1056.6	980.0
59.0	11.06	5.33	1056.5	979.9
59.01	11.06	5.32	1055.8	979.9
59.02	11.06	5.32	1056.8	980.0
59.03	11.05	5.32	1056.9	979.6
59.04	11.06	5.32	1056.5	980.0
59.05	11.06	5.32	1056.0	979.8
59.06	11.05	5.32	1057.0	980.2
59.07	11.06	5.32	1056.5	979.7
59.08	11.06	5.32	1056.4	980.2
59.09	11.06	5.32	1056.7	980.0
59.1	11.06	5.33	1056.0	979.8
59.11	11.07	5.33	1056.9	979.9
59.12	11.06	5.32	1056.5	979.7
59.13	11.06	5.32	1056.5	979.8
59.14	11.07	5.32	1055.8	979.7
59.15	11.05	5.32	1056.1	979.7
59.16	11.05	5.32	1056.2	979.8
59.17	11.06	5.32	1056.4	979.9
59.18	11.06	5.32	1056.0	980.1
59.19	11.07	5.32	1056.0	979.8
59.2	11.07	5.32	1056.2	980.0
59.21	11.06	5.32	1056.2	980.0
59.22	11.05	5.32	1056.7	979.9
59.23	11.06	5.32	1055.8	979.8
59.24	11.05	5.32	1056.8	979.8
59.25	11.06	5.32	1056.1	979.9
59.26	11.05	5.32	1056.0	979.8
59.27	11.07	5.32	1055.5	979.7
59.28	11.05	5.32	1056.3	979.7
59.29	11.06	5.32	1056.5	979.8
59.3	11.06	5.32	1056.6	979.7
59.31	11.06	5.32	1055.8	979.4
59.32	11.06	5.32	1055.8	979.4
59.33	11.06	5.32	1055.9	979.5
59.34	11.06	5.32	1055.8	979.3
59.35	11.06	5.32	1056.6	979.7
59.36	11.06	5.32	1056.2	979.6
59.37	11.06	5.32	1056.5	979.6
59.38	11.05	5.32	1056.4	979.8
59.39	11.06	5.32	1056.3	980.0
59.4	11.07	5.33	1055.2	980.0
59.41	11.05	5.32	1056.3	979.8
59.42	11.05	5.32	1056.4	979.6
59.43	11.07	5.32	1056.7	979.7
59.44	11.06	5.32	1056.1	979.7
59.45	11.05	5.32	1055.8	979.8
59.46	11.06	5.32	1056.0	979.6
59.47	11.05	5.32	1056.1	979.6
59.48	11.06	5.32	1055.9	979.5
59.49	11.05	5.32	1055.5	979.8
59.5	11.06	5.33	1055.6	979.8
59.51	11.06	5.33	1055.9	979.5
59.52	11.05	5.32	1056.0	979.5
59.53	11.06	5.32	1055.4	979.5
59.54	11.05	5.32	1056.4	979.6
59.55	11.06	5.32	1055.7	979.5
59.56	11.06	5.32	1055.3	979.7
59.57	11.05	5.32	1055.4	979.5
59.58	11.06	5.32	1055.4	979.5
59.59	11.06	5.32	1055.9	979.3
59.6	11.06	5.32	1055.7	979.5
59.61	11.06	5.32	1055.0	979.1
59.62	11.06	5.32	1054.5	979.5
59.63	11.06	5.32	1055.5	979.6
59.64	11.06	5.32	1055.8	979.7
59.65	11.05	5.32	1055.6	979.7
59.66	11.06	5.32	1054.8	979.7
59.67	11.06	5.32	1055.5	979.6
59.68	11.06	5.32	1055.3	979.7
59.69	11.07	5.33	1055.7	979.7
59.7	11.05	5.32	1055.0	979.5
59.71	11.06	5.32	1054.9	979.4
59.72	11.05	5.32	1056.5	979.8
59.73	11.06	5.32	1055.1	979.5
59.74	11.06	5.32	1055.8	979.8
59.75	11.05	5.32	1055.4	979.5
59.76	11.06	5.32	1056.1	979.7
59.77	11.05	5.32	1055.7	979.7
59.78	11.06	5.32	1056.2	979.4
59.79	11.05	5.32	1055.0	979.7
59.8	11.05	5.32	1055.4	979.4
59.81	11.06	5.32	1055.8	979.7
59.82	11.06	5.32	1055.7	979.5
59.83	11.06	5.32	1055.1	979.7
59.84	11.07	5.32	1055.1	979.6
59.85	11.05	5.32	1055.5	979.3
59.86	11.07	5.32	1055.2	979.3
59.87	11.06	5.32	1055.8	979.5
59.88	11.06	5.32	1055.0	979.9
59.89	11.07	5.32	1055.3	979.7
59.9	11.06	5.32	1055.3	979.7
59.91	11.06	5.32	1055.0	979.3
59.92	11.05	5.32	1054.2	979.8
59.93	11.05	5.32	1055.6	979.8
59.94	11.06	5.32	1055.4	979.4
59.95	11.07	5.32	1055.0	979.7
59.96	11.05	5.32	1054.6	979.5
59.97	11.06	5.32	1055.1	979.7
59.98	11.06	5.32	1055.0	979.7
59.98	11.06	5.32	1055.0	979.7
59.99	11.06	5.32	1055.0	979.7
60.0	11.06	5.32	1055.0	979.7
60.01	11.06	5.32	1055.0	979.7
60.02	11.06	5.32	1055.0	979.7
60.03	11.06	5.32	1055.0	979.7
60.04	11.06	5.32	1055.0	979.7
60.05	11.06	5.32	1055.0	979.7
60.06	11.06	5.32	1055.0	979.7
60.07	11.06	5.32	1055.0	979.7
60.08	11.06	5.32	1055.0	979.7
60.09	11.06	5.32	1055.0	979.7
60.1	11.06	5.32	1055.0	979.7
60.11	11.06	5.32	1055.0	979.7
60.12	11.06	5.32	1055.0	979.7
60.13	11.06	5.32	1055.0	979.7
60.14	11.06	5.32	1055.0	979.7
60.15	11.06	5.32	1055.0	979.7
60.16	11.06	5.32	1055.0	979.7
60.17	11.06	5.32	1055.0	979.7
60.18	11.06	5.32	1055.0	979.7
60.19	11.06	5.32	1055.0	979.7
60.2	11.06	5.32	1055.0	979.7
60.21	11.06	5.32	1055.0	979.7
60.22	11.06	5.32	1055.0	979.7
60.23	11.06	5.32	1055.0	979.7
60.24	11.06	5.32	1055.0	979.7
60.25	11.06	5.32	1055.0	979.7
60.26	11.06	5.32	1055.0	979.7
60.27	11.06	5.32	1055.0	979.7
60.28	11.06	5.32	1055.0	979.7
60.29	11.06	5.32	1055.0	979.7
60.3	11.06	5.32	1055.0	979.7
60.31	11.06	5.32	1055.0	979.7
60.32	11.06	5.32	1055.0	979.7
60.33	11.06	5.32	1055.0	979.7
60.34	11.06	5.32	1055.0	979.7
60.35	11.06	5.32	1055.0	979.7
60.36	11.06	5.32	1055.0	979.7
60.37	11.06	5.32	1055.0	979.7
60.38	11.06	5.32	1055.0	979.7
60.39	11.06	5.32	1055.0	979.7
60.4	11.06	5.32	1055.0	979.7
60.41	11.06	5.32	1055.0	979.7
60.42	11.06	5.32	1055.0	979.7
60.43	11.06	5.32	1055.0	979.7
60.44	11.06	5.32	1055.0	979.7
60.45	11.06	5.32	1055.0	979.7
60.46	11.06	5.32	1055.0	979.7
60.47	11.06	5.32	1055.0	979.7
60.48	11.06	5.32	1055.0	979.7
60.49	11.06	5.32	1055.0	979.7
60.5	11.06	5.32	1055.0	979.7
60.51	11.06	5.32	1055.0	979.7
60.52	11.06	5.32	1055.0	979.7
60.53	11.06	5.32	1055.0	979.7
60.54	11.06	5.32	1055.0	979.7
60.55	11.06	5.32	1055.0	979.7
60.56	11.06	5.32	1055.0	979.7
60.57	11.06	5.32	1055.0	979.7
60.58	11.06	5.32	1055.0	979.7
60.59	11.06	5.32	1055.0	979.7
60.6	11.06	5.32	1055.0	979.7
60.61	11.06	5.32	1055.0	979.7
60.62	11.06	5.32	1055.0	979.7
60.63	11.06	5.32	1055.0	979.7
60.64	11.06	5.32	1055.0	979.7
60.65	11.06	5.32	1055.0	979.7
60.66	11.06	5.32	1055.0	979.7
60.67	11.06	5.32	1055.0	979.7
60.68	11.06	5.32	1055.0	979.7
60.69	11.06	5.32	1055.0	979.7
60.7	11.06	5.32	1055.0	979.7
60.71	11.06	5.32	1055.0	979.7
60.72	11.06	5.32	1055.0	979.7
60.73	11.06	5.32	1055.0	979.7
60.74	11.06	5.32	1055.0	979.7
60.75	11.06	5.32	1055.0	979.7
60.76	11.06	5.32	1055.0	979.7
60.77	11.06	5.32	1055.0	979.7
60.78	11.06	5.32	1055.0	979.7
60.79	11.06	5.32	1055.0	979.7
60.8	11.06	5.32	1055.0	979.7
60.81	11.06	5.32	1055.0	979.7
60.82	11.06	5.32	1055.0	979.7
60.83	11.06	5.32	1055.0	979.7
60.84	11.06	5.32	1055.0	979.7
60.85	11.06	5.32	1055.0	979.7
60.86	11.06	5.32	1055.0	979.7
60.87	11.06	5.32	1055.0	979.7
60.88	11.06	5.32	1055.0	979.7
60.89	11.06	5.32	1055.0	979.7
60.9	11.06	5.32	1055.0	979.7
60.91	11.06	5.32	1055.0	979.7
60.92	11.06	5.32	1055.0	979.7
60.93	11.06	5.32	1055.0	979.7
60.94	11.06	5.32	1055.0	979.7
60.95	11.06	5.32	1055.0	979.7
60.96	11.06	5.32	1055.0	979.7
60.97	11.06	5.32	1055.0	979.7
60.98	11.06	5.32	1055.0	979.7
60.99	11.06	5.32	1055.0	979.7
61.0	11.06	5.32	1055.0	979.7