t[s]	U[V]	I[A]	Piro[C]	TC[C]
-0.01	-0.01	-0.01	646.9	704.1
0.0	9.36	16.27	704.1	646.9
0.01	10.57	18.31	704.1	646.8
0.02	10.86	18.76	704.1	646.6
0.03	10.94	18.86	704.0	646.5
0.04	10.97	18.89	704.1	647.0
0.05	11.0	18.88	704.1	646.8
0.06	11.01	18.87	704.0	646.8
0.07	11.02	18.86	704.1	646.9
0.08	11.03	18.86	704.2	646.9
0.09	11.05	18.85	704.1	646.8
0.1	11.04	18.83	704.0	647.0
0.11	11.05	18.8	704.2	646.8
0.12	11.04	18.78	704.1	646.6
0.13	11.04	18.76	704.1	646.7
0.14	11.06	18.75	704.1	646.6
0.15	11.05	18.72	704.1	646.7
0.16	11.05	18.69	704.1	646.7
0.17	11.06	18.67	704.2	647.0
0.18	11.04	18.64	704.2	646.6
0.19	11.05	18.63	704.0	646.9
0.2	11.06	18.61	704.1	646.8
0.21	11.06	18.6	704.1	646.9
0.22	11.07	18.59	704.1	647.0
0.23	11.06	18.56	704.1	646.8
0.24	11.05	18.54	704.2	646.7
0.25	11.07	18.52	704.1	646.8
0.26	11.05	18.49	704.1	646.6
0.27	11.07	18.48	704.2	646.8
0.28	11.05	18.45	704.1	646.6
0.29	11.06	18.44	704.0	646.6
0.3	11.05	18.41	704.1	646.8
0.31	11.07	18.4	704.1	646.7
0.32	11.06	18.39	704.1	647.0
0.33	11.06	18.37	704.2	646.9
0.34	11.05	18.36	704.1	646.8
0.35	11.07	18.34	704.0	646.7
0.36	11.06	18.32	704.1	646.9
0.37	11.06	18.3	704.2	646.8
0.38	11.06	18.27	704.1	646.9
0.39	11.05	18.25	704.0	646.6
0.4	11.04	18.23	704.0	646.8
0.41	11.06	18.21	704.0	646.7
0.42	11.04	18.2	704.1	646.9
0.43	11.05	18.19	704.1	646.7
0.44	11.05	18.17	704.1	646.9
0.45	11.05	18.16	704.1	646.6
0.46	11.05	18.14	704.1	646.8
0.47	11.05	18.11	704.1	646.9
0.48	11.07	18.12	704.2	646.6
0.49	11.05	18.08	704.1	646.9
0.5	11.06	18.07	704.0	646.9
0.51	11.04	18.04	704.1	646.8
0.52	11.06	18.04	704.1	646.8
0.53	11.06	18.03	704.2	646.8
0.54	11.06	18.01	704.2	646.9
0.55	11.05	17.99	704.1	646.8
0.56	11.06	17.98	704.1	646.7
0.57	11.05	17.95	704.2	646.9
0.58	11.05	17.92	704.2	646.8
0.59	11.05	17.91	704.1	646.6
0.6	11.07	17.9	704.2	646.9
0.61	11.06	17.89	704.0	646.8
0.62	11.05	17.88	704.1	646.8
0.63	11.05	17.85	704.1	646.8
0.64	11.05	17.84	704.1	646.9
0.65	11.05	17.82	704.1	646.8
0.66	11.05	17.8	704.0	646.8
0.67	11.05	17.79	704.2	646.9
0.68	11.06	17.79	704.2	646.8
0.69	11.06	17.76	704.1	646.8
0.7	11.05	17.73	704.1	646.7
0.71	11.04	17.72	704.2	646.7
0.72	11.06	17.7	704.0	646.8
0.73	11.05	17.68	704.2	646.6
0.74	11.07	17.7	704.3	646.8
0.75	11.06	17.66	704.1	646.7
0.76	11.06	17.64	704.1	646.8
0.77	11.05	17.62	704.1	646.9
0.78	11.06	17.6	704.2	646.7
0.79	11.07	17.58	704.1	646.8
0.8	11.07	17.59	704.2	647.1
0.81	11.05	17.55	704.1	646.7
0.82	11.05	17.53	704.1	646.7
0.83	11.06	17.51	704.1	647.0
0.84	11.07	17.52	704.0	646.7
0.85	11.06	17.49	704.0	646.6
0.86	11.06	17.47	704.1	646.9
0.87	11.06	17.46	704.1	646.8
0.88	11.05	17.44	704.1	646.8
0.89	11.07	17.44	704.1	646.7
0.9	11.05	17.4	704.2	647.0
0.91	11.06	17.4	704.0	646.7
0.92	11.06	17.38	704.1	646.9
0.93	11.04	17.34	704.1	646.9
0.94	11.06	17.35	704.1	646.8
0.95	11.06	17.32	704.2	646.7
0.96	11.05	17.3	704.1	646.8
0.97	11.06	17.29	704.2	646.8
0.98	11.06	17.29	704.2	646.6
0.99	11.06	17.26	704.1	647.0
1.0	11.06	17.24	704.2	646.7
1.01	11.06	17.24	704.0	646.8
1.02	11.05	17.21	704.2	646.9
1.03	11.05	17.18	704.2	646.6
1.04	11.05	17.18	704.1	646.8
1.05	11.06	17.17	704.1	646.8
1.06	11.05	17.15	704.2	646.9
1.07	11.06	17.13	704.1	646.9
1.08	11.06	17.11	704.0	646.8
1.09	11.05	17.1	704.3	646.7
1.1	11.08	17.11	704.1	646.9
1.11	11.07	17.08	704.1	646.8
1.12	11.05	17.05	704.2	646.8
1.13	11.05	17.03	704.1	647.0
1.14	11.04	17.01	704.2	646.8
1.15	11.06	17.02	704.1	646.9
1.16	11.06	17.0	704.2	646.8
1.17	11.07	17.0	704.1	646.8
1.18	11.07	16.98	704.0	646.8
1.19	11.06	16.96	704.1	647.2
1.2	11.07	16.95	704.1	646.8
1.21	11.05	16.92	704.1	646.8
1.22	11.04	16.89	704.1	646.7
1.23	11.05	16.89	704.2	647.0
1.24	11.05	16.86	704.0	646.8
1.25	11.04	16.84	704.0	646.8
1.26	11.06	16.83	704.1	646.8
1.27	11.04	16.81	704.0	646.9
1.28	11.05	16.81	704.1	647.1
1.29	11.05	16.79	704.1	646.9
1.3	11.06	16.77	704.0	646.8
1.31	11.05	16.76	704.1	646.7
1.32	11.05	16.73	704.1	646.8
1.33	11.05	16.72	704.1	646.6
1.34	11.05	16.71	704.0	646.8
1.35	11.06	16.7	704.0	646.7
1.36	11.08	16.71	704.1	646.9
1.37	11.06	16.68	704.2	646.8
1.38	11.06	16.66	704.1	646.7
1.39	11.05	16.63	704.1	646.7
1.4	11.04	16.61	704.1	646.9
1.41	11.05	16.61	704.0	646.8
1.42	11.07	16.61	704.2	647.0
1.43	11.06	16.59	704.2	647.0
1.44	11.06	16.57	704.2	646.8
1.45	11.06	16.54	704.0	646.7
1.46	11.06	16.55	704.2	646.8
1.47	11.05	16.52	704.1	646.8
1.48	11.06	16.52	704.2	647.0
1.49	11.06	16.49	704.1	646.8
1.5	11.05	16.46	704.1	646.8
1.51	11.06	16.46	704.2	647.0
1.52	11.05	16.44	704.0	646.9
1.53	11.05	16.42	704.1	647.0
1.54	11.05	16.41	704.1	647.0
1.55	11.06	16.4	704.1	646.8
1.56	11.04	16.37	704.1	646.8
1.57	11.05	16.36	704.1	646.8
1.58	11.05	16.35	704.1	647.1
1.59	11.06	16.34	704.2	646.9
1.6	11.06	16.33	704.2	646.8
1.61	11.06	16.3	704.0	647.1
1.62	11.06	16.31	704.0	646.9
1.63	11.06	16.28	704.0	647.0
1.64	11.06	16.27	704.1	647.0
1.65	11.07	16.26	704.1	646.9
1.66	11.06	16.24	704.1	646.6
1.67	11.06	16.22	704.0	646.7
1.68	11.06	16.2	704.2	646.8
1.69	11.05	16.18	704.2	646.9
1.7	11.05	16.17	704.2	646.8
1.71	11.05	16.15	704.2	646.8
1.72	11.07	16.16	704.0	647.0
1.73	11.06	16.13	704.0	646.7
1.74	11.05	16.11	704.2	646.8
1.75	11.05	16.09	704.1	647.1
1.76	11.05	16.08	704.1	646.9
1.77	11.06	16.07	704.1	646.9
1.78	11.05	16.04	704.1	646.8
1.79	11.05	16.03	704.1	646.8
1.8	11.05	16.02	704.1	646.7
1.81	11.05	16.0	704.0	646.7
1.82	11.06	16.0	704.1	646.6
1.83	11.06	15.97	704.2	646.9
1.84	11.06	15.95	704.2	646.9
1.85	11.06	15.95	704.2	646.8
1.86	11.05	15.92	704.2	646.9
1.87	11.05	15.91	704.0	646.6
1.88	11.06	15.9	704.1	647.0
1.89	11.06	15.88	704.0	647.0
1.9	11.08	15.88	704.1	646.7
1.91	11.05	15.85	704.2	646.7
1.92	11.06	15.84	704.1	647.0
1.93	11.05	15.82	704.1	646.9
1.94	11.05	15.8	704.2	646.8
1.95	11.06	15.79	704.1	646.8
1.96	11.06	15.77	704.2	646.8
1.97	11.05	15.75	704.1	646.9
1.98	11.05	15.74	704.0	646.7
1.99	11.06	15.73	704.1	647.0
2.0	11.05	15.71	704.2	646.8
2.01	11.06	15.7	704.0	647.0
2.02	11.06	15.68	704.0	646.7
2.03	11.05	15.67	704.1	646.9
2.04	11.05	15.65	704.0	646.8
2.05	11.05	15.64	704.1	646.8
2.06	11.06	15.62	704.1	646.8
2.07	11.04	15.6	704.1	646.6
2.08	11.07	15.61	704.0	647.1
2.09	11.06	15.58	704.0	646.8
2.1	11.05	15.56	704.0	646.6
2.11	11.06	15.55	704.2	647.0
2.12	11.06	15.53	704.2	647.0
2.13	11.06	15.52	704.1	646.9
2.14	11.06	15.5	704.1	646.8
2.15	11.06	15.49	704.1	647.0
2.16	11.06	15.48	704.1	646.7
2.17	11.06	15.45	704.1	646.8
2.18	11.06	15.44	704.2	646.8
2.19	11.06	15.43	704.1	647.0
2.2	11.06	15.42	704.1	646.6
2.21	11.06	15.4	704.1	646.9
2.22	11.05	15.38	704.1	646.8
2.23	11.06	15.37	704.0	646.7
2.24	11.06	15.36	704.1	647.0
2.25	11.06	15.34	704.2	646.8
2.26	11.06	15.33	704.2	646.7
2.27	11.04	15.31	704.1	647.0
2.28	11.06	15.3	704.1	646.9
2.29	11.06	15.28	704.0	646.6
2.3	11.05	15.26	704.1	646.6
2.31	11.06	15.25	704.1	646.8
2.32	11.06	15.24	704.1	647.0
2.33	11.06	15.22	704.1	646.8
2.34	11.06	15.21	704.1	647.0
2.35	11.05	15.19	704.0	646.9
2.36	11.05	15.17	704.1	646.8
2.37	11.06	15.15	704.1	646.7
2.38	11.06	15.15	704.1	646.9
2.39	11.06	15.13	704.1	646.8
2.4	11.06	15.12	704.0	646.6
2.41	11.06	15.1	704.1	646.8
2.42	11.05	15.08	704.2	646.9
2.43	11.06	15.06	704.0	646.8
2.44	11.07	15.07	704.1	646.9
2.45	11.07	15.06	704.1	647.0
2.46	11.06	15.02	704.0	646.7
2.47	11.06	15.01	704.1	646.9
2.48	11.06	14.99	704.1	646.8
2.49	11.05	14.97	704.0	647.0
2.5	11.05	14.96	704.1	646.9
2.51	11.07	14.96	704.1	646.8
2.52	11.05	14.93	704.1	646.8
2.53	11.06	14.92	704.1	646.9
2.54	11.05	14.9	704.0	647.0
2.55	11.05	14.89	704.1	648.7
2.56	11.05	14.87	704.1	649.1
2.57	11.06	14.87	704.0	651.4
2.58	11.07	14.85	704.1	653.5
2.59	11.05	14.83	704.1	654.9
2.6	11.07	14.83	704.1	657.0
2.61	11.05	14.81	704.1	658.4
2.62	11.06	14.79	704.1	659.9
2.63	11.04	14.76	704.0	661.2
2.64	11.06	14.75	704.1	663.3
2.65	11.06	14.75	704.1	664.6
2.66	11.08	14.74	704.0	666.6
2.67	11.06	14.72	704.1	668.4
2.68	11.06	14.7	704.1	669.4
2.69	11.06	14.68	704.0	671.4
2.7	11.07	14.67	704.1	672.4
2.71	11.05	14.65	704.2	674.4
2.72	11.05	14.63	704.2	675.4
2.73	11.06	14.62	704.1	677.2
2.74	11.05	14.6	704.1	679.3
2.75	11.05	14.6	704.2	680.9
2.76	11.06	14.59	704.4	681.8
2.77	11.06	14.57	705.5	683.4
2.78	11.08	14.57	706.8	684.2
2.79	11.05	14.53	707.8	685.4
2.8	11.05	14.51	707.8	686.4
2.81	11.06	14.52	712.0	687.5
2.82	11.05	14.49	713.4	688.4
2.83	11.06	14.47	714.4	689.7
2.84	11.06	14.46	714.5	691.0
2.85	11.06	14.45	716.9	691.4
2.86	11.04	14.43	719.2	693.0
2.87	11.04	14.41	720.5	694.2
2.88	11.05	14.4	722.0	695.5
2.89	11.05	14.38	722.1	696.9
2.9	11.04	14.36	725.3	697.9
2.91	11.04	14.35	726.6	698.9
2.92	11.05	14.33	727.4	699.9
2.93	11.06	14.33	727.5	701.2
2.94	11.07	14.33	730.1	701.9
2.95	11.08	14.31	731.9	703.0
2.96	11.08	14.3	733.0	704.1
2.97	11.07	14.28	733.9	705.2
2.98	11.05	14.25	735.2	707.2
2.99	11.07	14.25	737.4	708.1
3.0	11.06	14.23	738.2	709.6
3.01	11.07	14.22	739.9	711.0
3.02	11.07	14.2	739.8	712.2
3.03	11.07	14.18	742.4	713.7
3.04	11.05	14.17	744.2	715.1
3.05	11.05	14.15	745.2	716.2
3.06	11.05	14.14	746.1	717.9
3.07	11.06	14.13	747.1	719.5
3.08	11.06	14.11	749.9	720.3
3.09	11.05	14.1	750.4	722.4
3.1	11.05	14.09	751.8	723.4
3.11	11.06	14.07	752.0	725.0
3.12	11.06	14.06	754.1	726.2
3.13	11.06	14.05	756.3	727.2
3.14	11.06	14.04	757.2	728.8
3.15	11.07	14.03	758.2	730.3
3.16	11.08	14.01	758.7	731.0
3.17	11.07	13.99	761.3	733.0
3.18	11.06	13.98	762.2	733.9
3.19	11.06	13.96	763.3	735.4
3.2	11.06	13.94	763.2	736.5
3.21	11.06	13.93	766.2	738.3
3.22	11.07	13.91	767.4	738.8
3.23	11.07	13.91	768.5	740.2
3.24	11.07	13.89	769.4	741.5
3.25	11.08	13.89	770.9	742.7
3.26	11.08	13.87	772.9	743.7
3.27	11.07	13.86	773.9	744.2
3.28	11.07	13.83	774.8	745.2
3.29	11.07	13.82	775.3	746.6
3.3	11.06	13.8	778.0	747.1
3.31	11.05	13.77	778.5	747.9
3.32	11.04	13.75	779.7	748.8
3.33	11.03	13.74	779.6	750.3
3.34	11.05	13.73	781.2	751.3
3.35	11.06	13.72	783.6	752.4
3.36	11.05	13.7	784.6	752.9
3.37	11.06	13.69	785.8	754.1
3.38	11.05	13.68	786.1	755.2
3.39	11.05	13.66	788.4	756.4
3.4	11.05	13.64	789.6	757.3
3.41	11.06	13.64	790.6	759.0
3.42	11.07	13.63	791.7	759.6
3.43	11.06	13.62	791.8	761.2
3.44	11.05	13.58	794.6	762.0
3.45	11.05	13.58	795.2	763.4
3.46	11.07	13.59	796.4	764.5
3.47	11.06	13.57	796.9	766.0
3.48	11.08	13.56	798.6	766.8
3.49	11.06	13.53	799.7	768.5
3.5	11.08	13.53	800.8	769.0
3.51	11.06	13.5	801.6	770.2
3.52	11.06	13.48	801.9	771.0
3.53	11.05	13.46	804.4	772.4
3.54	11.05	13.45	805.2	772.9
3.55	11.07	13.44	806.9	774.5
3.56	11.05	13.43	807.2	775.3
3.57	11.06	13.41	807.9	776.6
3.58	11.06	13.41	810.0	777.2
3.59	11.05	13.38	810.8	777.9
3.6	11.05	13.37	811.6	778.6
3.61	11.08	13.38	812.1	779.6
3.62	11.05	13.35	814.2	780.1
3.63	11.06	13.34	815.0	781.6
3.64	11.05	13.31	816.4	782.0
3.65	11.05	13.3	816.7	783.3
3.66	11.05	13.29	818.2	783.8
3.67	11.06	13.27	819.8	784.8
3.68	11.07	13.28	820.5	785.7
3.69	11.05	13.24	821.8	787.2
3.7	11.06	13.25	821.8	788.0
3.71	11.07	13.23	823.9	789.2
3.72	11.06	13.22	824.6	789.7
3.73	11.06	13.19	826.0	791.0
3.74	11.06	13.18	826.6	791.9
3.75	11.06	13.17	827.0	793.2
3.76	11.06	13.16	828.9	793.8
3.77	11.07	13.15	829.8	795.4
3.78	11.06	13.13	830.5	796.1
3.79	11.07	13.12	831.0	797.7
3.8	11.05	13.1	832.6	798.2
3.81	11.06	13.08	834.0	799.2
3.82	11.05	13.07	834.7	799.9
3.83	11.06	13.07	835.5	801.1
3.84	11.07	13.06	836.1	801.4
3.85	11.06	13.03	838.0	802.2
3.86	11.04	13.01	838.9	802.9
3.87	11.05	13.0	840.0	803.8
3.88	11.05	12.99	840.1	804.4
3.89	11.06	12.98	842.0	805.2
3.9	11.06	12.98	843.1	805.5
3.91	11.05	12.95	844.0	807.2
3.92	11.05	12.94	845.1	807.8
3.93	11.05	12.93	845.0	808.9
3.94	11.06	12.92	847.2	809.9
3.95	11.06	12.91	848.0	811.1
3.96	11.05	12.88	848.7	811.7
3.97	11.05	12.87	848.7	813.3
3.98	11.06	12.86	850.2	813.4
3.99	11.05	12.84	851.5	814.7
4.0	11.07	12.84	852.1	815.1
4.01	11.06	12.82	852.9	816.3
4.02	11.06	12.81	853.2	817.0
4.03	11.06	12.8	855.1	818.0
4.04	11.06	12.78	856.1	818.8
4.05	11.06	12.78	857.1	819.7
4.06	11.06	12.76	857.7	820.0
4.07	11.05	12.74	858.4	820.7
4.08	11.06	12.73	859.9	821.4
4.09	11.04	12.71	860.2	822.5
4.1	11.07	12.72	860.6	822.8
4.11	11.05	12.7	861.0	824.1
4.12	11.05	12.68	862.7	824.5
4.13	11.05	12.67	864.1	825.5
4.14	11.05	12.65	865.0	826.0
4.15	11.06	12.65	865.3	827.5
4.16	11.06	12.63	865.3	828.0
4.17	11.06	12.62	867.2	829.4
4.18	11.06	12.61	868.2	829.6
4.19	11.06	12.59	868.7	830.7
4.2	11.06	12.59	869.4	831.4
4.21	11.06	12.57	870.3	832.4
4.22	11.05	12.55	871.8	833.0
4.23	11.06	12.55	872.5	834.2
4.24	11.06	12.54	873.4	834.4
4.25	11.05	12.51	873.6	835.7
4.26	11.06	12.51	874.8	836.2
4.27	11.07	12.5	875.7	836.8
4.28	11.06	12.49	876.4	837.2
4.29	11.06	12.47	877.2	838.0
4.3	11.06	12.45	877.8	838.4
4.31	11.06	12.44	879.3	839.4
4.32	11.06	12.43	879.8	839.8
4.33	11.05	12.42	880.8	841.2
4.34	11.05	12.4	881.4	841.4
4.35	11.07	12.4	881.5	842.8
4.36	11.06	12.39	883.0	843.2
4.37	11.06	12.36	883.8	844.4
4.38	11.06	12.36	884.5	845.1
4.39	11.05	12.34	885.0	846.2
4.4	11.06	12.33	886.2	846.9
4.41	11.06	12.32	887.3	847.8
4.42	11.04	12.3	888.0	848.3
4.43	11.05	12.28	888.5	849.3
4.44	11.06	12.29	888.7	849.6
4.45	11.06	12.27	890.4	850.3
4.46	11.05	12.26	891.0	850.6
4.47	11.06	12.24	891.9	851.6
4.48	11.06	12.24	892.4	851.8
4.49	11.06	12.23	893.5	852.5
4.5	11.05	12.21	894.2	853.1
4.51	11.07	12.2	895.1	854.2
4.52	11.06	12.19	895.7	854.4
4.53	11.07	12.18	895.9	855.7
4.54	11.06	12.17	897.0	856.0
4.55	11.06	12.15	897.9	857.3
4.56	11.05	12.13	898.8	857.6
4.57	11.06	12.12	899.0	858.7
4.58	11.05	12.11	899.2	859.2
4.59	11.06	12.11	900.7	860.3
4.6	11.07	12.09	901.2	860.4
4.61	11.05	12.08	902.2	861.7
4.62	11.07	12.07	902.9	861.9
4.63	11.06	12.06	903.3	862.4
4.64	11.06	12.05	904.5	863.0
4.65	11.05	12.03	905.0	863.7
4.66	11.06	12.02	905.4	863.9
4.67	11.05	12.01	906.2	865.3
4.68	11.06	12.0	906.8	865.3
4.69	11.05	11.99	907.7	866.4
4.7	11.06	11.97	908.6	866.8
4.71	11.05	11.95	909.7	867.7
4.72	11.06	11.95	909.2	868.2
4.73	11.05	11.93	910.6	869.1
4.74	11.06	11.93	910.6	869.5
4.75	11.06	11.93	912.2	870.4
4.76	11.05	11.9	912.3	870.7
4.77	11.06	11.89	913.4	871.7
4.78	11.06	11.89	914.2	871.9
4.79	11.05	11.87	914.8	872.6
4.8	11.06	11.86	915.8	872.9
4.81	11.06	11.84	915.2	873.5
4.82	11.06	11.84	917.2	873.7
4.83	11.06	11.83	917.8	875.0
4.84	11.06	11.81	918.3	875.3
4.85	11.06	11.81	918.6	876.4
4.86	11.06	11.79	920.1	876.6
4.87	11.06	11.79	920.8	877.6
4.88	11.06	11.77	921.3	877.7
4.89	11.05	11.75	921.4	879.0
4.9	11.06	11.75	921.6	879.4
4.91	11.06	11.74	922.9	880.3
4.92	11.05	11.73	923.3	880.7
4.93	11.06	11.72	924.4	881.6
4.94	11.04	11.7	924.0	881.8
4.95	11.06	11.7	924.7	882.8
4.96	11.06	11.69	925.6	882.9
4.97	11.05	11.67	926.7	883.5
4.98	11.05	11.66	926.8	883.9
4.99	11.05	11.65	927.3	884.5
5.0	11.04	11.64	928.2	885.0
5.01	11.06	11.63	929.4	885.7
5.02	11.06	11.62	929.5	885.9
5.03	11.06	11.6	930.6	887.2
5.04	11.05	11.59	930.3	887.1
5.05	11.07	11.59	931.7	888.2
5.06	11.06	11.57	932.0	888.3
5.07	11.06	11.56	932.6	889.3
5.08	11.06	11.56	933.4	889.7
5.09	11.06	11.54	933.9	890.5
5.1	11.05	11.52	934.8	890.6
5.11	11.07	11.52	935.3	891.6
5.12	11.06	11.51	936.2	891.2
5.13	11.06	11.5	936.1	892.4
5.14	11.06	11.49	936.6	892.3
5.15	11.06	11.47	937.6	893.0
5.16	11.06	11.46	938.0	893.4
5.17	11.06	11.46	938.5	894.4
5.18	11.04	11.44	939.0	894.5
5.19	11.05	11.43	940.0	895.7
5.2	11.05	11.43	940.4	895.7
5.21	11.05	11.41	941.2	896.9
5.22	11.07	11.42	941.1	897.1
5.23	11.07	11.4	941.9	898.0
5.24	11.06	11.38	943.1	898.2
5.25	11.07	11.38	943.6	899.0
5.26	11.05	11.36	944.8	899.6
5.27	11.07	11.36	944.6	900.1
5.28	11.05	11.34	945.4	900.0
5.29	11.06	11.33	946.0	900.9
5.3	11.06	11.32	946.3	901.0
5.31	11.05	11.3	946.6	902.1
5.32	11.07	11.31	947.4	902.4
5.33	11.05	11.29	948.0	902.9
5.34	11.07	11.28	948.2	903.1
5.35	11.06	11.27	948.7	904.2
5.36	11.05	11.25	949.4	904.2
5.37	11.05	11.25	950.5	905.5
5.38	11.06	11.23	950.2	905.3
5.39	11.05	11.23	951.1	906.1
5.4	11.07	11.23	951.1	906.2
5.41	11.06	11.21	951.8	907.0
5.42	11.06	11.2	952.7	907.5
5.43	11.05	11.19	953.6	907.9
5.44	11.05	11.18	953.4	907.9
5.45	11.07	11.18	954.2	908.7
5.46	11.05	11.15	954.8	908.3
5.47	11.05	11.14	955.4	909.3
5.48	11.06	11.15	956.6	909.6
5.49	11.05	11.13	956.0	910.3
5.5	11.05	11.11	956.7	910.5
5.51	11.04	11.1	957.5	911.4
5.52	11.06	11.1	957.8	911.3
5.53	11.06	11.1	958.0	912.2
5.54	11.05	11.08	958.3	912.5
5.55	11.06	11.08	959.2	913.4
5.56	11.06	11.05	959.6	913.4
5.57	11.06	11.05	961.0	914.2
5.58	11.08	11.05	960.7	914.5
5.59	11.05	11.03	961.0	914.8
5.6	11.08	11.04	961.8	915.1
5.61	11.07	11.02	962.5	916.0
5.62	11.05	10.99	963.1	915.9
5.63	11.06	10.99	962.8	916.8
5.64	11.06	10.99	963.9	916.9
5.65	11.06	10.98	964.3	917.9
5.66	11.06	10.97	965.1	918.0
5.67	11.05	10.95	965.1	918.8
5.68	11.06	10.95	965.6	918.9
5.69	11.06	10.94	966.5	920.0
5.7	11.05	10.93	966.5	919.9
5.71	11.08	10.93	966.8	920.8
5.72	11.06	10.91	967.3	920.9
5.73	11.05	10.89	968.0	921.8
5.74	11.05	10.88	968.6	921.7
5.75	11.05	10.88	969.1	922.1
5.76	11.06	10.88	969.2	922.2
5.77	11.06	10.86	969.4	922.9
5.78	11.04	10.84	970.0	923.0
5.79	11.05	10.84	970.7	923.8
5.8	11.06	10.84	970.9	923.9
5.81	11.07	10.84	971.0	924.7
5.82	11.06	10.82	971.7	924.6
5.83	11.06	10.81	972.1	925.5
5.84	11.05	10.79	972.3	925.8
5.85	11.06	10.79	972.5	926.3
5.86	11.06	10.78	972.8	926.4
5.87	11.06	10.77	973.9	927.4
5.88	11.06	10.76	974.1	927.2
5.89	11.06	10.75	975.0	928.0
5.9	11.05	10.74	974.7	928.0
5.91	11.05	10.73	975.8	928.4
5.92	11.06	10.73	976.6	928.4
5.93	11.05	10.71	976.9	929.4
5.94	11.07	10.72	976.7	929.3
5.95	11.05	10.7	977.2	930.3
5.96	11.06	10.7	977.6	930.1
5.97	11.06	10.68	978.1	931.1
5.98	11.06	10.68	978.7	931.2
5.99	11.05	10.66	978.5	932.0
6.0	11.06	10.65	979.0	932.0
6.01	11.05	10.64	979.5	932.8
6.02	11.05	10.63	980.3	932.9
6.03	11.05	10.63	981.0	933.7
6.04	11.06	10.62	980.2	933.8
6.05	11.05	10.6	981.4	934.1
6.06	11.05	10.59	981.8	934.0
6.07	11.06	10.6	982.4	934.9
6.08	11.05	10.58	982.2	934.9
6.09	11.05	10.57	982.5	935.8
6.1	11.06	10.57	983.3	935.8
6.11	11.05	10.55	983.9	936.8
6.12	11.07	10.55	983.7	936.5
6.13	11.04	10.53	984.4	937.5
6.14	11.06	10.53	984.6	937.7
6.15	11.05	10.52	985.3	938.3
6.16	11.05	10.51	985.5	938.6
6.17	11.05	10.5	986.1	939.0
6.18	11.05	10.5	986.2	939.0
6.19	11.05	10.49	987.2	940.0
6.2	11.05	10.48	987.3	940.0
6.21	11.05	10.47	987.6	940.1
6.22	11.06	10.47	987.4	940.2
6.23	11.06	10.46	988.2	941.3
6.24	11.06	10.44	988.8	941.1
6.25	11.06	10.45	989.2	942.0
6.26	11.06	10.43	989.4	941.5
6.27	11.08	10.44	989.7	942.8
6.28	11.06	10.42	990.0	942.2
6.29	11.07	10.42	990.9	942.9
6.3	11.06	10.4	991.3	943.0
6.31	11.07	10.4	991.3	944.1
6.32	11.06	10.38	991.7	943.5
6.33	11.07	10.39	992.4	944.5
6.34	11.05	10.36	992.2	944.6
6.35	11.07	10.36	993.1	945.3
6.36	11.07	10.36	992.7	945.2
6.37	11.05	10.33	993.2	945.8
6.38	11.06	10.34	993.4	945.3
6.39	11.05	10.32	994.5	946.2
6.4	11.05	10.31	994.0	946.0
6.41	11.08	10.33	994.7	947.0
6.42	11.06	10.3	995.7	947.0
6.43	11.07	10.3	995.8	947.3
6.44	11.05	10.28	996.1	947.5
6.45	11.05	10.27	995.9	948.1
6.46	11.06	10.27	996.7	948.1
6.47	11.05	10.25	997.6	949.1
6.48	11.04	10.25	997.0	948.8
6.49	11.07	10.25	997.4	949.8
6.5	11.05	10.23	997.4	949.6
6.51	11.05	10.22	998.4	950.3
6.52	11.05	10.22	998.7	950.5
6.53	11.06	10.22	999.0	950.7
6.54	11.04	10.2	999.0	950.8
6.55	11.06	10.2	999.6	951.3
6.56	11.06	10.2	1000.2	951.3
6.57	11.06	10.18	1000.5	952.3
6.58	11.06	10.17	1001.0	951.8
6.59	11.06	10.17	1000.9	952.8
6.6	11.07	10.17	1001.4	952.8
6.61	11.07	10.15	1001.6	953.3
6.62	11.06	10.14	1001.7	953.5
6.63	11.06	10.13	1002.0	954.2
6.64	11.06	10.13	1002.2	954.0
6.65	11.07	10.13	1003.0	954.9
6.66	11.06	10.11	1002.8	954.7
6.67	11.05	10.1	1003.1	955.3
6.68	11.04	10.08	1002.9	955.3
6.69	11.06	10.09	1003.7	955.8
6.7	11.07	10.09	1004.5	955.7
6.71	11.07	10.09	1005.3	956.3
6.72	11.06	10.06	1004.8	956.2
6.73	11.05	10.05	1004.8	957.1
6.74	11.05	10.04	1005.4	957.1
6.75	11.05	10.04	1005.7	957.6
6.76	11.05	10.03	1006.2	957.7
6.77	11.07	10.04	1006.2	958.4
6.78	11.07	10.03	1006.6	958.2
6.79	11.07	10.03	1007.2	959.0
6.8	11.06	10.01	1007.1	958.8
6.81	11.06	10.0	1007.7	959.9
6.82	11.06	9.99	1007.5	959.5
6.83	11.05	9.98	1008.2	960.3
6.84	11.05	9.97	1008.1	960.4
6.85	11.05	9.97	1008.8	960.8
6.86	11.07	9.97	1008.7	960.4
6.87	11.07	9.97	1009.7	961.2
6.88	11.07	9.96	1009.5	961.1
6.89	11.06	9.94	1010.0	961.8
6.9	11.05	9.93	1009.9	961.8
6.91	11.04	9.91	1010.0	962.2
6.92	11.06	9.91	1010.7	962.2
6.93	11.05	9.91	1011.1	963.0
6.94	11.06	9.9	1010.9	962.5
6.95	11.06	9.9	1011.2	963.6
6.96	11.08	9.9	1011.5	963.3
6.97	11.07	9.89	1012.3	964.0
6.98	11.07	9.88	1012.1	963.9
6.99	11.05	9.86	1013.1	964.5
7.0	11.05	9.86	1012.6	964.9
7.01	11.04	9.85	1013.4	965.0
7.02	11.04	9.84	1013.7	965.1
7.03	11.05	9.83	1014.0	965.4
7.04	11.05	9.83	1014.0	965.4
7.05	11.06	9.83	1013.7	965.8
7.06	11.06	9.83	1015.0	965.8
7.07	11.07	9.82	1015.7	966.3
7.08	11.07	9.81	1015.9	966.6
7.09	11.05	9.79	1015.6	967.2
7.1	11.04	9.78	1016.0	966.8
7.11	11.04	9.77	1016.8	967.5
7.12	11.04	9.76	1016.4	967.3
7.13	11.05	9.76	1017.1	968.2
7.14	11.05	9.76	1016.9	967.9
7.15	11.06	9.75	1017.3	968.7
7.16	11.07	9.76	1017.2	968.4
7.17	11.07	9.75	1017.9	969.3
7.18	11.07	9.75	1018.0	968.9
7.19	11.07	9.73	1018.0	969.4
7.2	11.06	9.73	1018.7	969.4
7.21	11.07	9.72	1018.8	970.0
7.22	11.05	9.71	1019.3	969.6
7.23	11.05	9.7	1019.0	970.1
7.24	11.05	9.68	1019.5	970.2
7.25	11.05	9.68	1020.4	970.9
7.26	11.05	9.67	1020.5	970.8
7.27	11.04	9.66	1020.6	971.3
7.28	11.04	9.66	1020.5	971.3
7.29	11.04	9.66	1021.3	971.8
7.3	11.05	9.65	1020.9	971.9
7.31	11.05	9.65	1021.7	972.4
7.32	11.05	9.64	1021.2	972.5
7.33	11.05	9.63	1022.3	973.1
7.34	11.05	9.62	1022.4	972.7
7.35	11.04	9.62	1022.8	973.6
7.36	11.05	9.61	1022.6	973.4
7.37	11.04	9.6	1022.8	973.7
7.38	11.04	9.59	1023.4	973.8
7.39	11.05	9.59	1023.6	974.0
7.4	11.05	9.58	1023.8	974.1
7.41	11.05	9.58	1023.6	974.5
7.42	11.06	9.58	1024.2	974.3
7.43	11.06	9.57	1024.5	975.0
7.44	11.07	9.57	1025.0	974.9
7.45	11.08	9.57	1025.2	975.7
7.46	11.07	9.56	1025.1	975.2
7.47	11.07	9.56	1025.7	976.2
7.48	11.07	9.55	1025.8	975.9
7.49	11.07	9.54	1026.5	976.8
7.5	11.07	9.53	1026.4	976.6
7.51	11.05	9.52	1026.7	977.2
7.52	11.05	9.51	1027.1	977.2
7.53	11.05	9.5	1027.5	977.5
7.54	11.04	9.49	1027.1	977.7
7.55	11.04	9.48	1027.7	978.2
7.56	11.04	9.48	1027.7	977.8
7.57	11.04	9.47	1028.1	978.3
7.58	11.05	9.47	1028.1	978.4
7.59	11.04	9.46	1028.0	978.8
7.6	11.05	9.46	1028.3	978.6
7.61	11.05	9.45	1029.0	979.3
7.62	11.05	9.45	1029.1	978.9
7.63	11.06	9.45	1029.5	979.9
7.64	11.06	9.45	1029.4	979.8
7.65	11.07	9.44	1030.2	980.2
7.66	11.06	9.43	1030.0	980.1
7.67	11.06	9.42	1030.7	981.0
7.68	11.05	9.41	1030.5	981.2
7.69	11.04	9.39	1030.7	981.2
7.7	11.04	9.39	1030.6	981.2
7.71	11.04	9.38	1031.6	981.7
7.72	11.06	9.39	1031.5	981.5
7.73	11.07	9.39	1031.3	982.2
7.74	11.07	9.38	1031.8	981.9
7.75	11.07	9.38	1031.8	982.3
7.76	11.05	9.36	1032.0	982.5
7.77	11.05	9.35	1031.9	983.0
7.78	11.04	9.34	1032.1	982.7
7.79	11.05	9.34	1032.8	983.3
7.8	11.06	9.35	1032.8	983.2
7.81	11.07	9.34	1032.8	983.6
7.82	11.06	9.33	1032.7	983.4
7.83	11.05	9.32	1033.4	984.3
7.84	11.05	9.31	1033.9	983.9
7.85	11.05	9.31	1034.2	984.4
7.86	11.07	9.32	1033.7	983.9
7.87	11.07	9.3	1034.2	984.7
7.88	11.05	9.29	1034.3	984.7
7.89	11.05	9.28	1034.3	984.9
7.9	11.04	9.27	1034.5	985.0
7.91	11.06	9.28	1034.8	985.8
7.92	11.05	9.27	1035.2	985.2
7.93	11.07	9.27	1035.5	985.8
7.94	11.06	9.26	1035.4	985.8
7.95	11.06	9.25	1035.4	986.4
7.96	11.04	9.24	1035.7	986.1
7.97	11.05	9.23	1036.2	986.6
7.98	11.06	9.24	1036.4	986.4
7.99	11.07	9.24	1036.9	986.9
8.0	11.06	9.22	1036.7	986.8
8.01	11.04	9.21	1037.2	987.4
8.02	11.06	9.21	1037.3	987.1
8.03	11.07	9.21	1037.5	987.6
8.04	11.07	9.21	1037.6	987.4
8.05	11.06	9.19	1037.6	988.0
8.06	11.05	9.19	1038.1	987.9
8.07	11.06	9.19	1038.8	988.4
8.08	11.06	9.18	1038.3	988.2
8.09	11.06	9.17	1038.6	988.7
8.1	11.05	9.16	1038.5	988.6
8.11	11.06	9.16	1039.2	989.0
8.12	11.07	9.16	1039.2	989.0
8.13	11.06	9.15	1039.8	989.2
8.14	11.05	9.14	1039.6	989.2
8.15	11.04	9.13	1040.2	989.6
8.16	11.06	9.13	1040.5	989.6
8.17	11.07	9.14	1040.4	990.1
8.18	11.07	9.13	1040.0	989.8
8.19	11.06	9.12	1040.6	990.6
8.2	11.06	9.11	1041.1	990.3
8.21	11.04	9.1	1041.6	990.5
8.22	11.07	9.11	1041.6	990.6
8.23	11.07	9.11	1041.1	991.0
8.24	11.06	9.09	1041.6	990.9
8.25	11.05	9.08	1041.5	991.3
8.26	11.06	9.08	1041.9	991.2
8.27	11.06	9.08	1042.4	992.0
8.28	11.05	9.06	1042.3	991.6
8.29	11.05	9.06	1042.8	991.9
8.3	11.06	9.06	1042.7	991.9
8.31	11.06	9.05	1043.4	992.2
8.32	11.06	9.04	1042.6	992.0
8.33	11.06	9.04	1043.7	992.9
8.34	11.05	9.03	1043.6	992.6
8.35	11.05	9.03	1044.5	993.1
8.36	11.07	9.03	1044.3	992.8
8.37	11.06	9.02	1044.9	993.4
8.38	11.06	9.01	1044.8	993.1
8.39	11.05	9.01	1044.8	993.7
8.4	11.07	9.01	1045.1	993.5
8.41	11.05	8.99	1044.9	994.0
8.42	11.06	9.0	1045.4	994.2
8.43	11.06	8.99	1046.0	994.4
8.44	11.05	8.98	1046.1	994.2
8.45	11.06	8.97	1046.1	994.8
8.46	11.06	8.97	1045.9	994.4
8.47	11.06	8.96	1046.0	995.0
8.48	11.05	8.95	1046.1	994.6
8.49	11.07	8.96	1046.8	995.4
8.5	11.06	8.95	1046.6	995.2
8.51	11.06	8.94	1046.9	995.8
8.52	11.06	8.95	1047.2	995.4
8.53	11.07	8.94	1047.7	996.0
8.54	11.05	8.92	1047.3	995.7
8.55	11.07	8.94	1047.2	996.1
8.56	11.06	8.92	1047.7	995.9
8.57	11.06	8.92	1048.0	996.7
8.58	11.07	8.92	1048.2	996.8
8.59	11.06	8.9	1048.7	996.8
8.6	11.05	8.9	1048.2	996.5
8.61	11.06	8.89	1048.7	997.2
8.62	11.04	8.89	1048.4	996.9
8.63	11.07	8.89	1049.5	997.4
8.64	11.04	8.87	1048.8	997.4
8.65	11.08	8.88	1049.8	997.7
8.66	11.06	8.87	1049.4	997.7
8.67	11.06	8.86	1050.3	997.8
8.68	11.06	8.86	1050.0	997.9
8.69	11.06	8.85	1050.7	998.5
8.7	11.07	8.85	1050.9	998.2
8.71	11.06	8.85	1051.3	998.8
8.72	11.05	8.84	1051.2	998.6
8.73	11.06	8.84	1050.6	998.9
8.74	11.06	8.83	1051.4	998.7
8.75	11.07	8.83	1051.4	999.2
8.76	11.07	8.83	1051.5	999.1
8.77	11.06	8.82	1051.7	999.5
8.78	11.06	8.82	1051.6	999.4
8.79	11.05	8.8	1052.0	1000.1
8.8	11.06	8.8	1051.7	999.6
8.81	11.05	8.8	1052.3	1000.2
8.82	11.06	8.79	1052.2	999.9
8.83	11.05	8.78	1052.6	1000.3
8.84	11.06	8.78	1052.9	1000.3
8.85	11.05	8.78	1052.9	1000.8
8.86	11.06	8.77	1052.7	1000.5
8.87	11.06	8.78	1053.2	1001.2
8.88	11.05	8.75	1053.5	1000.9
8.89	11.05	8.76	1053.8	1001.2
8.9	11.05	8.75	1053.6	1001.0
8.91	11.06	8.75	1054.0	1001.4
8.92	11.06	8.75	1053.8	1001.4
8.93	11.05	8.74	1054.1	1001.8
8.94	11.06	8.73	1054.1	1002.0
8.95	11.06	8.73	1054.4	1002.0
8.96	11.06	8.73	1054.4	1002.1
8.97	11.07	8.73	1054.9	1002.0
8.98	11.06	8.72	1054.9	1002.3
8.99	11.06	8.72	1054.8	1002.6
9.0	11.07	8.71	1054.8	1002.4
9.01	11.06	8.7	1055.5	1003.0
9.02	11.08	8.7	1055.6	1002.6
9.03	11.05	8.69	1056.1	1003.2
9.04	11.06	8.69	1055.2	1003.0
9.05	11.05	8.68	1056.0	1003.4
9.06	11.06	8.68	1056.1	1003.0
9.07	11.06	8.68	1056.1	1003.5
9.08	11.05	8.66	1056.5	1003.4
9.09	11.06	8.66	1056.4	1003.8
9.1	11.07	8.67	1056.8	1003.6
9.11	11.06	8.66	1057.1	1004.0
9.12	11.06	8.65	1057.3	1003.8
9.13	11.05	8.65	1058.0	1004.2
9.14	11.06	8.64	1057.3	1003.9
9.15	11.06	8.64	1058.0	1004.3
9.16	11.06	8.64	1057.7	1004.3
9.17	11.05	8.63	1058.1	1004.3
9.18	11.05	8.62	1057.7	1004.6
9.19	11.04	8.61	1058.4	1004.8
9.2	11.06	8.62	1058.6	1004.9
9.21	11.05	8.6	1058.7	1005.0
9.22	11.06	8.61	1058.4	1004.8
9.23	11.07	8.6	1058.8	1005.3
9.24	11.06	8.59	1059.0	1004.9
9.25	11.07	8.6	1059.6	1005.7
9.26	11.06	8.59	1059.5	1005.3
9.27	11.07	8.59	1059.9	1005.7
9.28	11.05	8.58	1059.6	1005.5
9.29	11.07	8.58	1060.4	1005.9
9.3	11.05	8.57	1060.0	1005.8
9.31	11.05	8.57	1060.3	1005.8
9.32	11.06	8.57	1060.0	1006.1
9.33	11.07	8.56	1060.2	1006.0
9.34	11.06	8.56	1060.5	1006.1
9.35	11.05	8.54	1060.9	1006.2
9.36	11.06	8.55	1061.3	1006.5
9.37	11.06	8.54	1060.8	1006.5
9.38	11.05	8.54	1061.4	1006.5
9.39	11.06	8.53	1062.0	1006.7
9.4	11.05	8.52	1061.0	1006.6
9.41	11.06	8.53	1061.4	1006.8
9.42	11.06	8.52	1061.3	1006.7
9.43	11.06	8.52	1062.1	1007.2
9.44	11.06	8.51	1061.8	1007.2
9.45	11.05	8.5	1062.2	1007.3
9.46	11.06	8.51	1061.6	1007.1
9.47	11.05	8.49	1062.8	1007.7
9.48	11.06	8.5	1062.6	1007.7
9.49	11.05	8.49	1062.9	1007.9
9.5	11.05	8.49	1062.7	1007.6
9.51	11.07	8.49	1063.0	1008.0
9.52	11.07	8.48	1063.3	1007.9
9.53	11.06	8.47	1063.8	1008.1
9.54	11.06	8.47	1063.5	1008.2
9.55	11.06	8.47	1063.5	1008.6
9.56	11.07	8.46	1063.3	1008.2
9.57	11.06	8.46	1063.7	1008.5
9.58	11.07	8.46	1063.6	1008.3
9.59	11.05	8.45	1064.3	1008.7
9.6	11.05	8.44	1064.0	1008.6
9.61	11.06	8.44	1064.6	1009.0
9.62	11.06	8.44	1064.6	1009.0
9.63	11.05	8.43	1064.8	1009.2
9.64	11.06	8.43	1064.6	1009.0
9.65	11.05	8.43	1064.7	1009.4
9.66	11.06	8.42	1064.9	1009.2
9.67	11.05	8.42	1065.2	1009.3
9.68	11.06	8.41	1065.1	1009.5
9.69	11.05	8.41	1065.1	1009.6
9.7	11.06	8.4	1065.4	1009.7
9.71	11.06	8.4	1065.6	1010.2
9.72	11.06	8.4	1065.0	1010.0
9.73	11.06	8.39	1065.3	1010.2
9.74	11.06	8.39	1065.7	1010.1
9.75	11.06	8.39	1066.8	1010.4
9.76	11.06	8.38	1066.5	1010.0
9.77	11.06	8.38	1066.7	1010.3
9.78	11.06	8.37	1066.2	1010.6
9.79	11.05	8.37	1066.7	1010.7
9.8	11.06	8.37	1067.1	1010.8
9.81	11.05	8.35	1067.1	1010.9
9.82	11.07	8.36	1067.0	1010.8
9.83	11.06	8.35	1067.0	1011.1
9.84	11.06	8.35	1067.2	1011.1
9.85	11.06	8.34	1067.5	1011.3
9.86	11.05	8.34	1067.2	1011.4
9.87	11.06	8.34	1067.5	1011.2
9.88	11.06	8.34	1067.8	1011.4
9.89	11.06	8.33	1068.6	1011.6
9.9	11.06	8.33	1068.1	1011.6
9.91	11.06	8.32	1068.6	1011.8
9.92	11.06	8.32	1067.7	1011.6
9.93	11.07	8.32	1068.3	1011.9
9.94	11.04	8.3	1068.8	1011.8
9.95	11.07	8.31	1068.9	1012.2
9.96	11.05	8.3	1069.0	1011.9
9.97	11.06	8.3	1069.2	1012.5
9.98	11.06	8.29	1069.4	1012.3
9.99	11.06	8.29	1069.8	1012.7
10.0	11.06	8.29	1069.6	1012.4
10.01	11.06	8.28	1069.7	1012.6
10.02	11.05	8.27	1069.2	1013.0
10.03	11.06	8.27	1070.0	1012.9
10.04	11.06	8.27	1069.8	1012.8
10.05	11.06	8.27	1070.8	1012.9
10.06	11.05	8.26	1070.1	1013.2
10.07	11.06	8.26	1070.6	1013.2
10.08	11.07	8.26	1070.2	1012.9
10.09	11.05	8.25	1070.6	1013.4
10.1	11.06	8.25	1070.1	1013.4
10.11	11.06	8.25	1070.3	1013.7
10.12	11.06	8.24	1070.7	1013.5
10.13	11.06	8.24	1071.2	1014.0
10.14	11.06	8.24	1070.9	1013.8
10.15	11.06	8.23	1071.0	1014.0
10.16	11.06	8.23	1071.0	1014.2
10.17	11.05	8.22	1071.8	1014.1
10.18	11.06	8.22	1071.8	1014.3
10.19	11.05	8.21	1071.9	1014.3
10.2	11.04	8.21	1072.1	1014.5
10.21	11.06	8.21	1072.8	1014.8
10.22	11.06	8.21	1072.4	1014.6
10.23	11.06	8.21	1072.6	1015.0
10.24	11.06	8.2	1072.3	1014.8
10.25	11.05	8.19	1072.6	1015.2
10.26	11.06	8.19	1073.1	1015.1
10.27	11.06	8.19	1073.0	1015.1
10.28	11.07	8.19	1073.6	1015.3
10.29	11.07	8.19	1073.1	1015.4
10.3	11.07	8.18	1073.4	1015.4
10.31	11.06	8.18	1073.7	1015.8
10.32	11.06	8.17	1073.2	1015.6
10.33	11.05	8.16	1073.9	1015.9
10.34	11.06	8.16	1074.0	1015.8
10.35	11.05	8.16	1074.6	1016.2
10.36	11.06	8.16	1074.2	1015.9
10.37	11.06	8.16	1074.6	1016.2
10.38	11.06	8.15	1074.1	1016.2
10.39	11.05	8.14	1074.8	1016.4
10.4	11.06	8.14	1073.9	1016.3
10.41	11.05	8.13	1074.9	1016.4
10.42	11.07	8.14	1074.3	1016.5
10.43	11.06	8.14	1074.9	1016.9
10.44	11.06	8.13	1075.4	1016.5
10.45	11.05	8.12	1075.5	1016.9
10.46	11.05	8.12	1075.5	1016.7
10.47	11.05	8.11	1075.1	1017.1
10.48	11.06	8.11	1075.4	1017.0
10.49	11.06	8.11	1075.8	1017.0
10.5	11.06	8.11	1075.6	1017.1
10.51	11.06	8.11	1076.4	1017.5
10.52	11.06	8.1	1076.0	1017.3
10.53	11.05	8.1	1076.2	1017.7
10.54	11.06	8.09	1076.4	1017.5
10.55	11.06	8.09	1076.6	1017.5
10.56	11.05	8.08	1076.7	1017.5
10.57	11.06	8.08	1076.4	1017.8
10.58	11.06	8.08	1076.6	1017.8
10.59	11.06	8.08	1077.3	1018.0
10.6	11.05	8.07	1076.8	1017.9
10.61	11.06	8.07	1076.8	1018.3
10.62	11.06	8.07	1077.2	1018.0
10.63	11.07	8.07	1078.0	1018.2
10.64	11.04	8.05	1077.2	1017.8
10.65	11.06	8.06	1077.9	1018.1
10.66	11.06	8.05	1077.4	1017.9
10.67	11.06	8.05	1078.0	1018.2
10.68	11.06	8.05	1078.0	1018.1
10.69	11.06	8.04	1078.2	1018.4
10.7	11.05	8.04	1077.9	1018.0
10.71	11.05	8.03	1078.8	1018.2
10.72	11.05	8.03	1078.7	1018.2
10.73	11.06	8.03	1078.6	1018.5
10.74	11.05	8.02	1078.3	1018.4
10.75	11.07	8.02	1078.7	1018.7
10.76	11.06	8.02	1078.7	1018.7
10.77	11.06	8.01	1079.0	1018.7
10.78	11.06	8.01	1078.8	1018.8
10.79	11.06	8.01	1078.6	1018.8
10.8	11.05	8.0	1078.9	1018.9
10.81	11.06	8.0	1079.1	1019.3
10.82	11.05	8.0	1079.1	1019.0
10.83	11.06	8.0	1079.9	1019.4
10.84	11.06	7.99	1079.6	1019.2
10.85	11.06	7.99	1080.1	1019.5
10.86	11.06	7.99	1080.0	1019.5
10.87	11.06	7.98	1080.7	1019.6
10.88	11.07	7.99	1080.0	1019.5
10.89	11.07	7.98	1080.6	1019.6
10.9	11.07	7.98	1080.5	1019.6
10.91	11.06	7.97	1080.6	1020.0
10.92	11.07	7.97	1080.3	1019.8
10.93	11.06	7.97	1080.7	1019.6
10.94	11.07	7.97	1080.9	1019.7
10.95	11.06	7.96	1080.9	1019.6
10.96	11.05	7.96	1081.1	1019.6
10.97	11.05	7.95	1080.5	1019.6
10.98	11.06	7.95	1080.9	1019.6
10.99	11.05	7.94	1081.3	1020.2
11.0	11.04	7.93	1081.4	1019.8
11.01	11.04	7.93	1081.6	1020.1
11.02	11.06	7.93	1081.0	1020.0
11.03	11.05	7.93	1081.8	1020.4
11.04	11.07	7.93	1081.9	1020.2
11.05	11.05	7.92	1081.9	1020.7
11.06	11.06	7.92	1081.7	1020.5
11.07	11.06	7.93	1081.9	1020.9
11.08	11.07	7.92	1082.4	1020.6
11.09	11.08	7.92	1082.9	1020.9
11.1	11.07	7.92	1082.2	1020.7
11.11	11.05	7.91	1082.4	1020.8
11.12	11.06	7.91	1082.4	1020.9
11.13	11.06	7.9	1082.6	1020.7
11.14	11.06	7.9	1082.6	1020.9
11.15	11.06	7.89	1083.0	1021.2
11.16	11.05	7.89	1082.3	1020.8
11.17	11.06	7.89	1082.8	1021.2
11.18	11.05	7.88	1083.2	1020.8
11.19	11.07	7.89	1083.2	1021.0
11.2	11.07	7.89	1082.6	1020.8
11.21	11.05	7.88	1083.4	1020.9
11.22	11.06	7.87	1083.3	1020.9
11.23	11.05	7.87	1083.6	1021.1
11.24	11.06	7.87	1083.8	1021.3
11.25	11.06	7.87	1083.4	1021.5
11.26	11.06	7.87	1084.0	1021.4
11.27	11.06	7.86	1084.7	1021.5
11.28	11.06	7.86	1084.7	1021.6
11.29	11.06	7.85	1085.1	1021.6
11.3	11.06	7.85	1084.0	1021.6
11.31	11.06	7.85	1084.6	1021.8
11.32	11.05	7.84	1084.7	1021.8
11.33	11.05	7.83	1085.0	1022.2
11.34	11.05	7.83	1084.7	1022.1
11.35	11.06	7.83	1084.9	1022.0
11.36	11.06	7.84	1085.0	1022.0
11.37	11.07	7.84	1085.5	1022.3
11.38	11.06	7.83	1085.3	1022.1
11.39	11.05	7.82	1085.2	1022.1
11.4	11.05	7.82	1085.3	1022.5
11.41	11.05	7.82	1085.1	1022.6
11.42	11.06	7.81	1085.7	1022.4
11.43	11.06	7.81	1087.0	1022.8
11.44	11.05	7.81	1085.6	1022.6
11.45	11.06	7.81	1086.4	1022.7
11.46	11.05	7.8	1085.7	1022.9
11.47	11.05	7.79	1086.8	1022.9
11.48	11.05	7.8	1086.4	1022.6
11.49	11.06	7.79	1087.0	1022.9
11.5	11.06	7.79	1087.0	1023.2
11.51	11.06	7.79	1087.4	1023.1
11.52	11.06	7.79	1087.3	1023.4
11.53	11.08	7.79	1087.3	1023.4
11.54	11.06	7.78	1087.5	1023.2
11.55	11.07	7.78	1087.6	1023.4
11.56	11.07	7.78	1087.6	1023.6
11.57	11.06	7.77	1087.3	1023.5
11.58	11.06	7.76	1087.7	1023.4
11.59	11.05	7.76	1087.9	1023.7
11.6	11.07	7.76	1087.9	1023.5
11.61	11.07	7.77	1088.4	1023.9
11.62	11.08	7.76	1088.2	1023.9
11.63	11.06	7.76	1088.4	1023.9
11.64	11.06	7.75	1088.3	1023.9
11.65	11.06	7.75	1088.3	1024.0
11.66	11.07	7.76	1087.8	1024.0
11.67	11.05	7.74	1088.2	1024.3
11.68	11.05	7.74	1088.7	1024.3
11.69	11.05	7.73	1089.2	1024.3
11.7	11.06	7.73	1088.7	1024.3
11.71	11.06	7.73	1088.8	1024.3
11.72	11.06	7.73	1089.3	1024.3
11.73	11.05	7.73	1089.2	1024.5
11.74	11.06	7.72	1089.4	1024.5
11.75	11.05	7.72	1089.6	1024.7
11.76	11.07	7.72	1089.3	1024.4
11.77	11.06	7.72	1090.0	1024.6
11.78	11.05	7.71	1089.6	1024.7
11.79	11.04	7.7	1089.9	1024.9
11.8	11.05	7.7	1089.7	1024.8
11.81	11.05	7.7	1090.2	1025.0
11.82	11.07	7.7	1090.2	1024.7
11.83	11.06	7.7	1090.2	1024.9
11.84	11.08	7.7	1090.3	1025.2
11.85	11.07	7.7	1090.3	1025.2
11.86	11.06	7.69	1090.8	1025.2
11.87	11.06	7.69	1090.2	1024.9
11.88	11.06	7.68	1090.4	1025.0
11.89	11.06	7.68	1090.3	1025.1
11.9	11.06	7.68	1090.6	1025.2
11.91	11.06	7.67	1091.0	1025.3
11.92	11.06	7.67	1090.6	1025.1
11.93	11.05	7.66	1091.0	1025.4
11.94	11.06	7.67	1090.9	1025.6
11.95	11.07	7.67	1091.1	1025.6
11.96	11.04	7.66	1091.0	1025.5
11.97	11.06	7.66	1091.5	1025.5
11.98	11.05	7.66	1090.5	1025.6
11.99	11.05	7.65	1091.6	1025.7
12.0	11.06	7.65	1091.6	1025.8
12.01	11.06	7.65	1092.1	1025.8
12.02	11.05	7.65	1091.9	1025.9
12.03	11.06	7.64	1092.1	1025.9
12.04	11.05	7.64	1092.3	1026.0
12.05	11.05	7.63	1092.7	1025.9
12.06	11.05	7.63	1092.8	1026.0
12.07	11.06	7.63	1091.5	1025.8
12.08	11.05	7.63	1091.7	1026.1
12.09	11.06	7.63	1091.5	1025.8
12.1	11.06	7.63	1090.9	1026.1
12.11	11.06	7.62	1092.0	1026.2
12.12	11.04	7.61	1091.3	1026.5
12.13	11.06	7.62	1091.5	1026.2
12.14	11.05	7.61	1091.0	1026.4
12.15	11.07	7.61	1091.4	1026.3
12.16	11.05	7.61	1090.8	1026.4
12.17	11.06	7.61	1092.0	1026.6
12.18	11.06	7.6	1092.2	1026.6
12.19	11.07	7.61	1092.5	1026.9
12.2	11.06	7.61	1092.5	1026.8
12.21	11.06	7.6	1092.9	1027.0
12.22	11.05	7.59	1093.6	1026.8
12.23	11.07	7.6	1093.7	1027.1
12.24	11.06	7.59	1093.3	1026.8
12.25	11.05	7.58	1093.3	1026.8
12.26	11.05	7.58	1093.8	1026.9
12.27	11.06	7.58	1094.1	1026.9
12.28	11.07	7.58	1094.2	1026.8
12.29	11.06	7.57	1094.2	1027.0
12.3	11.06	7.58	1093.8	1026.8
12.31	11.06	7.57	1094.6	1027.1
12.32	11.05	7.56	1094.3	1027.1
12.33	11.07	7.57	1094.6	1027.2
12.34	11.06	7.56	1094.5	1027.2
12.35	11.06	7.56	1095.1	1027.1
12.36	11.06	7.56	1094.8	1027.3
12.37	11.06	7.56	1095.1	1027.2
12.38	11.06	7.55	1094.8	1027.4
12.39	11.06	7.56	1095.4	1027.3
12.4	11.07	7.55	1095.6	1027.3
12.41	11.05	7.55	1095.5	1027.4
12.42	11.06	7.54	1095.4	1027.3
12.43	11.05	7.54	1095.5	1027.5
12.44	11.07	7.54	1095.8	1027.4
12.45	11.05	7.53	1096.1	1027.7
12.46	11.06	7.53	1096.1	1027.7
12.47	11.05	7.53	1096.5	1027.8
12.48	11.06	7.53	1096.1	1027.8
12.49	11.05	7.53	1096.5	1027.7
12.5	11.05	7.52	1096.6	1027.9
12.51	11.06	7.53	1096.4	1027.6
12.52	11.07	7.52	1096.1	1027.8
12.53	11.05	7.51	1096.4	1027.8
12.54	11.06	7.51	1096.7	1028.0
12.55	11.06	7.51	1097.2	1028.0
12.56	11.06	7.5	1097.0	1027.9
12.57	11.06	7.51	1096.8	1028.0
12.58	11.06	7.5	1097.4	1028.1
12.59	11.07	7.51	1097.7	1028.2
12.6	11.06	7.5	1096.7	1028.2
12.61	11.06	7.5	1097.2	1028.4
12.62	11.06	7.5	1097.1	1028.2
12.63	11.06	7.49	1097.9	1028.4
12.64	11.07	7.49	1097.2	1028.5
12.65	11.05	7.48	1097.7	1028.7
12.66	11.06	7.48	1097.5	1028.6
12.67	11.06	7.48	1098.4	1028.6
12.68	11.06	7.48	1098.2	1028.7
12.69	11.05	7.47	1098.4	1028.8
12.7	11.06	7.48	1098.1	1028.4
12.71	11.05	7.47	1098.3	1028.7
12.72	11.06	7.47	1099.1	1028.8
12.73	11.06	7.46	1099.0	1028.7
12.74	11.04	7.46	1099.0	1028.7
12.75	11.07	7.47	1098.6	1028.8
12.76	11.05	7.46	1098.7	1028.9
12.77	11.06	7.46	1099.1	1029.0
12.78	11.05	7.45	1099.0	1028.9
12.79	11.06	7.46	1099.2	1029.1
12.8	11.06	7.46	1098.6	1028.8
12.81	11.06	7.45	1099.3	1028.9
12.82	11.06	7.45	1099.4	1029.0
12.83	11.06	7.44	1099.4	1028.9
12.84	11.05	7.44	1099.3	1029.2
12.85	11.06	7.44	1099.6	1028.9
12.86	11.07	7.44	1099.7	1029.1
12.87	11.05	7.43	1099.7	1029.3
12.88	11.06	7.44	1099.7	1029.3
12.89	11.05	7.43	1099.8	1029.4
12.9	11.06	7.43	1099.8	1029.3
12.91	11.05	7.42	1100.1	1029.2
12.92	11.06	7.42	1100.0	1029.5
12.93	11.07	7.43	1099.9	1029.4
12.94	11.06	7.42	1100.2	1029.3
12.95	11.06	7.42	1100.8	1029.4
12.96	11.06	7.42	1100.2	1029.3
12.97	11.06	7.41	1100.5	1029.5
12.98	11.05	7.41	1100.7	1029.6
12.99	11.07	7.41	1100.9	1029.6
13.0	11.05	7.4	1101.0	1029.4
13.01	11.07	7.41	1101.1	1029.6
13.02	11.05	7.39	1100.5	1029.6
13.03	11.06	7.41	1101.3	1029.6
13.04	11.06	7.39	1101.3	1030.0
13.05	11.06	7.4	1101.2	1029.6
13.06	11.06	7.39	1101.7	1029.9
13.07	11.05	7.39	1101.6	1029.8
13.08	11.08	7.39	1102.0	1029.9
13.09	11.06	7.39	1101.8	1030.2
13.1	11.06	7.38	1101.4	1030.0
13.11	11.06	7.38	1101.2	1030.0
13.12	11.07	7.38	1101.3	1030.2
13.13	11.05	7.37	1101.3	1030.1
13.14	11.08	7.38	1101.5	1030.1
13.15	11.05	7.37	1102.2	1030.0
13.16	11.06	7.37	1101.8	1030.1
13.17	11.05	7.37	1102.8	1030.2
13.18	11.06	7.36	1102.7	1030.3
13.19	11.06	7.37	1102.9	1030.3
13.2	11.06	7.36	1102.4	1030.6
13.21	11.05	7.35	1102.7	1030.2
13.22	11.06	7.36	1102.8	1030.3
13.23	11.05	7.35	1102.7	1030.4
13.24	11.06	7.35	1102.2	1030.4
13.25	11.06	7.35	1101.6	1030.4
13.26	11.05	7.34	1102.1	1030.4
13.27	11.06	7.35	1101.6	1030.4
13.28	11.06	7.34	1101.8	1030.5
13.29	11.06	7.35	1101.8	1030.6
13.3	11.07	7.34	1102.1	1030.6
13.31	11.06	7.34	1103.0	1030.4
13.32	11.07	7.34	1102.4	1030.6
13.33	11.05	7.33	1103.4	1030.8
13.34	11.06	7.33	1102.1	1030.6
13.35	11.06	7.33	1103.4	1030.8
13.36	11.06	7.32	1103.2	1030.6
13.37	11.07	7.33	1103.7	1031.0
13.38	11.06	7.32	1103.7	1030.7
13.39	11.07	7.33	1104.1	1030.9
13.4	11.06	7.32	1104.4	1030.9
13.41	11.06	7.31	1104.4	1030.9
13.42	11.06	7.32	1104.4	1031.1
13.43	11.05	7.31	1104.7	1030.8
13.44	11.06	7.31	1104.9	1031.0
13.45	11.06	7.31	1104.9	1031.1
13.46	11.06	7.31	1104.8	1030.8
13.47	11.06	7.3	1105.2	1030.9
13.48	11.05	7.3	1104.9	1031.1
13.49	11.06	7.3	1105.4	1031.4
13.5	11.06	7.3	1105.2	1031.3
13.51	11.06	7.29	1105.7	1031.2
13.52	11.06	7.29	1105.0	1031.3
13.53	11.08	7.3	1105.6	1031.2
13.54	11.04	7.28	1105.7	1031.3
13.55	11.06	7.29	1106.2	1031.3
13.56	11.04	7.28	1105.8	1031.4
13.57	11.07	7.29	1105.4	1031.6
13.58	11.07	7.28	1106.0	1031.5
13.59	11.06	7.28	1106.0	1031.5
13.6	11.07	7.28	1106.2	1031.5
13.61	11.06	7.27	1106.0	1031.6
13.62	11.06	7.27	1105.8	1031.5
13.63	11.07	7.28	1106.4	1031.8
13.64	11.06	7.27	1106.4	1031.6
13.65	11.06	7.27	1106.6	1031.8
13.66	11.07	7.27	1105.7	1031.9
13.67	11.06	7.26	1106.9	1031.7
13.68	11.06	7.26	1107.1	1031.7
13.69	11.07	7.26	1107.1	1032.0
13.7	11.06	7.25	1107.1	1031.8
13.71	11.06	7.26	1107.0	1031.8
13.72	11.06	7.25	1107.2	1031.8
13.73	11.07	7.25	1107.5	1031.7
13.74	11.06	7.25	1107.5	1031.7
13.75	11.06	7.25	1107.2	1031.7
13.76	11.05	7.24	1107.5	1031.7
13.77	11.05	7.24	1107.6	1031.9
13.78	11.07	7.24	1107.1	1031.8
13.79	11.05	7.24	1107.5	1031.9
13.8	11.06	7.23	1107.5	1031.8
13.81	11.07	7.24	1107.7	1032.4
13.82	11.06	7.23	1107.6	1032.2
13.83	11.06	7.23	1107.5	1031.9
13.84	11.07	7.23	1107.9	1032.0
13.85	11.05	7.22	1107.9	1032.2
13.86	11.06	7.22	1108.0	1032.2
13.87	11.06	7.23	1108.1	1032.0
13.88	11.06	7.22	1107.8	1032.1
13.89	11.05	7.22	1108.2	1032.1
13.9	11.06	7.21	1108.1	1032.0
13.91	11.05	7.21	1108.1	1032.2
13.92	11.06	7.21	1108.4	1032.0
13.93	11.05	7.21	1108.2	1032.4
13.94	11.06	7.21	1108.6	1032.1
13.95	11.05	7.2	1108.6	1032.2
13.96	11.06	7.2	1108.3	1032.3
13.97	11.06	7.21	1108.2	1032.1
13.98	11.06	7.2	1108.8	1032.3
13.99	11.05	7.2	1108.9	1032.5
14.0	11.06	7.2	1108.8	1032.6
14.01	11.06	7.2	1109.1	1032.4
14.02	11.05	7.19	1108.9	1032.4
14.03	11.05	7.19	1109.8	1032.3
14.04	11.07	7.19	1109.1	1032.3
14.05	11.06	7.19	1109.4	1032.5
14.06	11.05	7.18	1109.2	1032.5
14.07	11.05	7.18	1109.3	1032.9
14.08	11.06	7.18	1109.7	1032.6
14.09	11.06	7.18	1109.6	1032.8
14.1	11.07	7.18	1109.4	1032.7
14.11	11.05	7.17	1108.9	1032.8
14.12	11.06	7.18	1109.5	1032.7
14.13	11.06	7.17	1109.7	1032.5
14.14	11.05	7.16	1109.6	1032.7
14.15	11.05	7.16	1109.5	1032.8
14.16	11.06	7.17	1109.7	1032.7
14.17	11.07	7.17	1110.3	1033.0
14.18	11.05	7.16	1110.2	1032.8
14.19	11.06	7.15	1110.7	1032.8
14.2	11.05	7.15	1110.0	1032.9
14.21	11.06	7.15	1110.6	1033.1
14.22	11.06	7.16	1110.2	1033.1
14.23	11.05	7.15	1110.2	1033.1
14.24	11.05	7.14	1110.1	1032.8
14.25	11.06	7.15	1110.3	1033.0
14.26	11.05	7.15	1110.6	1032.8
14.27	11.06	7.15	1110.6	1033.0
14.28	11.05	7.14	1111.0	1032.8
14.29	11.05	7.13	1110.6	1032.9
14.3	11.06	7.14	1110.7	1033.0
14.31	11.06	7.14	1111.1	1033.1
14.32	11.06	7.14	1111.3	1033.1
14.33	11.07	7.14	1111.2	1032.9
14.34	11.04	7.13	1110.9	1032.9
14.35	11.05	7.12	1111.5	1033.1
14.36	11.05	7.12	1111.4	1033.2
14.37	11.05	7.12	1111.4	1033.1
14.38	11.06	7.13	1111.1	1033.1
14.39	11.07	7.13	1111.7	1033.3
14.4	11.06	7.12	1112.0	1033.2
14.41	11.06	7.12	1112.0	1033.3
14.42	11.05	7.11	1111.8	1033.3
14.43	11.07	7.12	1111.6	1033.4
14.44	11.07	7.12	1112.1	1033.4
14.45	11.07	7.12	1112.4	1033.4
14.46	11.07	7.12	1112.1	1033.4
14.47	11.06	7.1	1112.6	1033.6
14.48	11.05	7.1	1112.1	1033.6
14.49	11.06	7.1	1112.7	1033.7
14.5	11.07	7.1	1112.7	1033.6
14.51	11.07	7.11	1112.6	1033.7
14.52	11.07	7.1	1112.4	1033.6
14.53	11.05	7.09	1112.6	1033.6
14.54	11.06	7.09	1112.8	1033.6
14.55	11.04	7.09	1112.8	1033.6
14.56	11.06	7.09	1113.0	1033.6
14.57	11.06	7.09	1112.8	1033.8
14.58	11.07	7.09	1113.3	1033.6
14.59	11.07	7.09	1113.2	1033.7
14.6	11.06	7.08	1113.0	1033.8
14.61	11.04	7.08	1113.0	1033.8
14.62	11.05	7.07	1113.3	1033.7
14.63	11.05	7.08	1113.7	1033.8
14.64	11.07	7.08	1113.2	1033.7
14.65	11.06	7.08	1113.3	1033.8
14.66	11.06	7.07	1113.4	1033.6
14.67	11.05	7.07	1113.8	1033.9
14.68	11.06	7.07	1113.7	1034.0
14.69	11.06	7.07	1113.5	1034.0
14.7	11.06	7.07	1113.6	1033.8
14.71	11.05	7.06	1113.3	1033.9
14.72	11.05	7.06	1113.6	1034.1
14.73	11.05	7.06	1113.7	1034.0
14.74	11.07	7.07	1113.9	1034.0
14.75	11.07	7.06	1113.8	1034.0
14.76	11.06	7.06	1114.0	1034.0
14.77	11.06	7.06	1114.4	1034.2
14.78	11.06	7.05	1114.2	1034.0
14.79	11.05	7.05	1114.7	1034.2
14.8	11.05	7.04	1114.0	1034.1
14.81	11.04	7.04	1114.3	1034.0
14.82	11.04	7.04	1114.6	1034.2
14.83	11.05	7.04	1115.0	1034.3
14.84	11.05	7.04	1114.9	1034.2
14.85	11.06	7.04	1114.6	1034.2
14.86	11.06	7.04	1114.8	1034.4
14.87	11.07	7.04	1115.2	1034.3
14.88	11.07	7.04	1115.0	1034.4
14.89	11.07	7.04	1115.2	1034.4
14.9	11.07	7.04	1115.6	1034.5
14.91	11.07	7.03	1114.8	1034.3
14.92	11.06	7.03	1115.0	1034.3
14.93	11.07	7.03	1115.2	1034.5
14.94	11.05	7.03	1116.0	1034.2
14.95	11.07	7.03	1115.6	1034.3
14.96	11.05	7.02	1115.7	1034.4
14.97	11.07	7.02	1115.7	1034.5
14.98	11.05	7.02	1115.5	1034.3
14.99	11.07	7.02	1115.6	1034.4
15.0	11.07	7.02	1115.5	1034.1
15.01	11.07	7.02	1116.2	1034.3
15.02	11.06	7.02	1115.6	1034.3
15.03	11.07	7.02	1116.2	1034.4
15.04	11.06	7.01	1116.4	1034.2
15.05	11.08	7.01	1116.3	1034.5
15.06	11.06	7.01	1116.1	1034.5
15.07	11.07	7.01	1116.1	1034.6
15.08	11.06	7.01	1116.5	1034.5
15.09	11.06	7.0	1116.2	1034.5
15.1	11.05	7.0	1116.5	1034.6
15.11	11.07	7.0	1116.0	1034.7
15.12	11.06	6.99	1116.6	1034.7
15.13	11.05	6.99	1116.4	1034.8
15.14	11.07	6.99	1116.5	1034.8
15.15	11.06	6.99	1117.0	1034.7
15.16	11.06	6.99	1116.1	1034.9
15.17	11.05	6.98	1116.6	1034.6
15.18	11.06	6.98	1116.8	1034.9
15.19	11.06	6.98	1116.8	1034.6
15.2	11.06	6.98	1116.4	1034.7
15.21	11.07	6.98	1116.9	1035.1
15.22	11.06	6.98	1117.0	1034.9
15.23	11.06	6.98	1117.3	1034.8
15.24	11.07	6.98	1117.6	1034.8
15.25	11.06	6.97	1117.1	1034.7
15.26	11.06	6.97	1117.8	1034.8
15.27	11.06	6.97	1117.6	1035.0
15.28	11.06	6.97	1117.8	1034.9
15.29	11.06	6.97	1117.9	1035.0
15.3	11.07	6.97	1117.5	1034.9
15.31	11.06	6.97	1118.1	1035.0
15.32	11.07	6.97	1118.1	1035.2
15.33	11.06	6.97	1118.4	1035.1
15.34	11.07	6.96	1117.8	1034.9
15.35	11.06	6.96	1118.4	1035.1
15.36	11.07	6.96	1118.5	1035.2
15.37	11.06	6.96	1118.2	1035.0
15.38	11.06	6.95	1118.8	1035.2
15.39	11.07	6.95	1117.9	1034.9
15.4	11.05	6.95	1119.2	1035.3
15.41	11.05	6.94	1118.8	1035.3
15.42	11.06	6.94	1119.0	1035.5
15.43	11.05	6.94	1118.9	1035.4
15.44	11.06	6.94	1119.1	1035.4
15.45	11.04	6.93	1119.5	1035.4
15.46	11.05	6.93	1119.1	1035.4
15.47	11.04	6.93	1118.9	1035.6
15.48	11.05	6.93	1119.0	1035.4
15.49	11.06	6.93	1119.6	1035.4
15.5	11.06	6.93	1119.6	1035.7
15.51	11.06	6.93	1119.7	1035.3
15.52	11.06	6.94	1119.3	1035.5
15.53	11.06	6.93	1119.4	1035.4
15.54	11.06	6.93	1119.9	1035.5
15.55	11.06	6.92	1119.9	1035.6
15.56	11.04	6.92	1120.0	1035.6
15.57	11.06	6.92	1119.7	1035.4
15.58	11.04	6.91	1119.9	1035.5
15.59	11.05	6.91	1120.2	1035.6
15.6	11.05	6.91	1120.3	1035.6
15.61	11.05	6.91	1120.3	1035.7
15.62	11.05	6.91	1120.0	1035.8
15.63	11.06	6.91	1120.6	1035.7
15.64	11.05	6.91	1120.6	1035.8
15.65	11.06	6.91	1120.6	1036.0
15.66	11.05	6.91	1120.5	1035.8
15.67	11.07	6.91	1120.4	1035.7
15.68	11.06	6.91	1121.0	1035.7
15.69	11.06	6.9	1120.7	1035.7
15.7	11.06	6.9	1120.9	1035.8
15.71	11.07	6.91	1120.5	1035.8
15.72	11.06	6.9	1121.2	1035.8
15.73	11.07	6.9	1121.1	1035.6
15.74	11.06	6.9	1121.4	1035.9
15.75	11.07	6.9	1121.4	1035.7
15.76	11.06	6.9	1121.2	1035.8
15.77	11.07	6.9	1121.5	1036.0
15.78	11.06	6.9	1121.4	1035.8
15.79	11.06	6.89	1121.2	1035.9
15.8	11.06	6.89	1121.1	1036.0
15.81	11.06	6.88	1121.3	1035.9
15.82	11.06	6.88	1121.5	1035.8
15.83	11.06	6.88	1121.6	1035.8
15.84	11.06	6.88	1121.3	1036.0
15.85	11.06	6.88	1121.3	1036.2
15.86	11.07	6.88	1121.8	1035.8
15.87	11.06	6.88	1122.0	1035.9
15.88	11.07	6.88	1121.8	1036.1
15.89	11.05	6.88	1121.6	1035.9
15.9	11.06	6.87	1122.0	1035.9
15.91	11.06	6.87	1123.1	1036.2
15.92	11.06	6.86	1122.4	1036.1
15.93	11.05	6.86	1122.4	1036.1
15.94	11.05	6.86	1122.2	1036.2
15.95	11.04	6.85	1122.8	1035.9
15.96	11.06	6.86	1123.0	1036.0
15.97	11.04	6.86	1123.5	1036.2
15.98	11.05	6.85	1123.4	1036.1
15.99	11.05	6.85	1123.5	1035.9
16.0	11.05	6.85	1123.5	1036.0
16.01	11.05	6.85	1123.4	1036.1
16.02	11.05	6.85	1123.5	1036.1
16.03	11.05	6.85	1123.3	1036.4
16.04	11.05	6.85	1123.6	1036.1
16.05	11.04	6.84	1123.4	1036.3
16.06	11.05	6.84	1123.4	1036.2
16.07	11.04	6.84	1123.1	1036.4
16.08	11.06	6.84	1123.3	1036.3
16.09	11.07	6.85	1123.4	1036.3
16.1	11.07	6.84	1123.5	1036.4
16.11	11.08	6.85	1123.5	1036.6
16.12	11.06	6.84	1122.8	1036.2
16.13	11.06	6.84	1123.6	1036.2
16.14	11.07	6.84	1123.7	1036.4
16.15	11.07	6.84	1124.0	1036.3
16.16	11.06	6.84	1123.7	1036.4
16.17	11.07	6.84	1123.6	1036.4
16.18	11.07	6.84	1124.2	1036.3
16.19	11.07	6.83	1123.9	1036.2
16.2	11.06	6.83	1123.8	1036.3
16.21	11.05	6.82	1124.1	1036.4
16.22	11.06	6.83	1124.0	1036.4
16.23	11.05	6.82	1124.2	1036.4
16.24	11.05	6.82	1124.0	1036.4
16.25	11.05	6.81	1124.1	1036.8
16.26	11.05	6.81	1124.2	1036.5
16.27	11.04	6.81	1124.5	1036.8
16.28	11.04	6.81	1124.4	1036.5
16.29	11.03	6.8	1124.8	1036.8
16.3	11.04	6.81	1124.1	1036.6
16.31	11.05	6.8	1124.6	1036.6
16.32	11.05	6.81	1124.6	1036.6
16.33	11.06	6.81	1124.6	1036.5
16.34	11.06	6.81	1124.3	1036.8
16.35	11.07	6.81	1124.8	1036.6
16.36	11.04	6.8	1124.4	1036.8
16.37	11.05	6.8	1124.6	1036.8
16.38	11.05	6.8	1124.4	1036.8
16.39	11.06	6.8	1124.4	1036.7
16.4	11.06	6.8	1124.8	1036.7
16.41	11.06	6.8	1125.2	1036.6
16.42	11.06	6.79	1125.1	1037.1
16.43	11.06	6.79	1125.0	1036.7
16.44	11.03	6.78	1125.0	1036.8
16.45	11.05	6.79	1124.9	1036.8
16.46	11.05	6.79	1125.1	1036.8
16.47	11.06	6.79	1125.6	1036.7
16.48	11.07	6.8	1124.8	1037.0
16.49	11.06	6.79	1124.9	1036.9
16.5	11.06	6.79	1125.6	1037.0
16.51	11.06	6.79	1125.1	1036.9
16.52	11.06	6.78	1125.7	1037.0
16.53	11.05	6.78	1125.0	1037.0
16.54	11.04	6.77	1125.6	1037.0
16.55	11.06	6.78	1125.5	1037.0
16.56	11.07	6.78	1125.8	1037.2
16.57	11.05	6.77	1125.9	1037.0
16.58	11.06	6.77	1126.0	1037.0
16.59	11.05	6.77	1126.1	1037.2
16.6	11.05	6.77	1125.8	1037.1
16.61	11.05	6.77	1125.5	1037.1
16.62	11.06	6.77	1126.1	1037.3
16.63	11.06	6.77	1126.0	1036.9
16.64	11.07	6.77	1126.2	1037.1
16.65	11.06	6.76	1126.6	1037.0
16.66	11.06	6.76	1126.2	1037.3
16.67	11.04	6.75	1126.5	1037.0
16.68	11.06	6.76	1126.4	1037.0
16.69	11.06	6.76	1126.9	1037.0
16.7	11.06	6.76	1127.0	1037.2
16.71	11.07	6.76	1126.6	1037.1
16.72	11.07	6.76	1126.9	1037.1
16.73	11.07	6.76	1126.6	1037.2
16.74	11.06	6.76	1126.9	1037.2
16.75	11.07	6.76	1126.9	1037.5
16.76	11.07	6.75	1127.2	1037.2
16.77	11.04	6.74	1126.8	1037.3
16.78	11.05	6.74	1126.6	1037.3
16.79	11.06	6.74	1126.8	1037.0
16.8	11.07	6.75	1127.1	1037.4
16.81	11.06	6.75	1127.2	1037.1
16.82	11.07	6.75	1127.5	1037.2
16.83	11.06	6.74	1127.4	1037.3
16.84	11.06	6.74	1127.3	1037.1
16.85	11.06	6.74	1127.6	1037.2
16.86	11.07	6.74	1127.0	1037.3
16.87	11.07	6.74	1127.4	1037.3
16.88	11.07	6.74	1126.7	1037.2
16.89	11.06	6.73	1127.3	1037.2
16.9	11.06	6.73	1127.8	1037.3
16.91	11.05	6.72	1127.5	1037.5
16.92	11.06	6.73	1127.0	1037.4
16.93	11.05	6.72	1127.2	1037.6
16.94	11.05	6.72	1127.5	1037.6
16.95	11.05	6.72	1127.6	1037.5
16.96	11.05	6.72	1127.7	1037.6
16.97	11.06	6.72	1127.7	1037.4
16.98	11.06	6.72	1127.6	1037.3
16.99	11.08	6.73	1127.8	1037.6
17.0	11.05	6.72	1127.8	1037.4
17.01	11.05	6.71	1127.7	1037.5
17.02	11.05	6.71	1127.5	1037.6
17.03	11.06	6.71	1127.9	1037.8
17.04	11.04	6.71	1128.0	1037.6
17.05	11.06	6.71	1127.8	1037.4
17.06	11.05	6.7	1127.4	1037.7
17.07	11.05	6.71	1127.9	1037.7
17.08	11.05	6.71	1128.4	1037.5
17.09	11.06	6.71	1128.3	1037.8
17.1	11.07	6.71	1128.1	1037.7
17.11	11.07	6.7	1128.0	1037.5
17.12	11.07	6.71	1128.5	1037.8
17.13	11.07	6.7	1128.6	1037.6
17.14	11.06	6.7	1128.8	1037.4
17.15	11.06	6.7	1128.2	1037.6
17.16	11.05	6.69	1129.0	1037.4
17.17	11.05	6.69	1129.1	1037.5
17.18	11.06	6.69	1128.7	1037.5
17.19	11.06	6.69	1128.9	1037.6
17.2	11.06	6.69	1128.5	1037.6
17.21	11.07	6.7	1128.8	1037.5
17.22	11.07	6.69	1128.8	1037.6
17.23	11.07	6.69	1129.0	1037.8
17.24	11.06	6.69	1128.7	1037.7
17.25	11.04	6.68	1129.0	1037.6
17.26	11.04	6.68	1129.0	1037.6
17.27	11.05	6.68	1129.1	1037.4
17.28	11.05	6.68	1128.7	1037.4
17.29	11.05	6.68	1128.9	1037.7
17.3	11.07	6.69	1129.7	1037.7
17.31	11.07	6.68	1128.8	1037.5
17.32	11.06	6.68	1129.0	1037.6
17.33	11.06	6.68	1129.2	1037.4
17.34	11.06	6.67	1129.3	1037.6
17.35	11.06	6.68	1129.8	1037.5
17.36	11.05	6.67	1129.8	1037.5
17.37	11.05	6.67	1129.3	1037.5
17.38	11.05	6.66	1129.0	1037.6
17.39	11.04	6.66	1129.8	1037.4
17.4	11.05	6.66	1129.9	1037.3
17.41	11.05	6.66	1130.0	1037.2
17.42	11.06	6.67	1130.1	1037.4
17.43	11.06	6.67	1129.8	1037.4
17.44	11.07	6.67	1130.2	1037.2
17.45	11.05	6.66	1129.7	1037.4
17.46	11.05	6.65	1130.0	1037.2
17.47	11.06	6.66	1129.6	1037.3
17.48	11.06	6.66	1129.8	1037.3
17.49	11.06	6.66	1130.3	1037.4
17.5	11.06	6.66	1129.9	1037.5
17.51	11.05	6.65	1130.3	1037.3
17.52	11.06	6.65	1129.7	1037.2
17.53	11.05	6.65	1130.6	1037.3
17.54	11.08	6.66	1130.7	1037.2
17.55	11.05	6.65	1130.6	1037.4
17.56	11.05	6.64	1130.6	1037.3
17.57	11.05	6.64	1130.3	1037.2
17.58	11.06	6.64	1130.9	1037.3
17.59	11.07	6.65	1130.4	1037.5
17.6	11.07	6.65	1130.5	1037.4
17.61	11.05	6.64	1130.5	1037.3
17.62	11.05	6.64	1130.0	1037.6
17.63	11.06	6.64	1130.6	1037.5
17.64	11.07	6.64	1130.5	1037.4
17.65	11.05	6.63	1131.0	1037.6
17.66	11.04	6.63	1129.9	1037.9
17.67	11.06	6.63	1130.9	1037.5
17.68	11.05	6.64	1130.8	1037.3
17.69	11.07	6.64	1130.8	1037.3
17.7	11.05	6.62	1131.3	1037.6
17.71	11.05	6.62	1130.8	1037.4
17.72	11.07	6.63	1130.9	1037.5
17.73	11.06	6.63	1131.6	1037.6
17.74	11.04	6.62	1130.9	1037.6
17.75	11.06	6.62	1130.4	1037.7
17.76	11.06	6.62	1130.9	1037.4
17.77	11.07	6.63	1131.3	1037.6
17.78	11.05	6.61	1131.3	1037.8
17.79	11.05	6.61	1130.9	1037.4
17.8	11.07	6.63	1131.1	1037.6
17.81	11.07	6.62	1131.4	1037.6
17.82	11.03	6.61	1131.4	1037.4
17.83	11.05	6.61	1131.6	1037.5
17.84	11.06	6.62	1131.5	1037.4
17.85	11.07	6.62	1131.8	1037.6
17.86	11.05	6.61	1131.8	1037.5
17.87	11.05	6.61	1131.5	1037.6
17.88	11.05	6.61	1131.8	1037.7
17.89	11.05	6.6	1131.7	1037.7
17.9	11.06	6.61	1131.9	1037.6
17.91	11.07	6.61	1131.8	1037.6
17.92	11.05	6.6	1131.6	1037.8
17.93	11.05	6.6	1131.3	1037.4
17.94	11.04	6.59	1131.8	1037.4
17.95	11.05	6.6	1131.8	1037.7
17.96	11.06	6.6	1132.0	1037.5
17.97	11.06	6.6	1132.2	1037.6
17.98	11.06	6.59	1131.5	1037.5
17.99	11.05	6.59	1132.4	1037.7
18.0	11.07	6.6	1132.4	1037.5
18.01	11.06	6.6	1132.0	1037.8
18.02	11.06	6.59	1131.6	1037.8
18.03	11.05	6.59	1132.0	1037.6
18.04	11.05	6.59	1132.8	1037.7
18.05	11.05	6.59	1132.3	1037.4
18.06	11.06	6.59	1132.8	1037.6
18.07	11.06	6.59	1132.2	1037.5
18.08	11.06	6.59	1132.4	1037.6
18.09	11.06	6.59	1132.8	1037.7
18.1	11.05	6.58	1132.4	1037.5
18.11	11.04	6.58	1133.2	1037.9
18.12	11.04	6.57	1132.6	1037.8
18.13	11.05	6.58	1133.4	1037.5
18.14	11.06	6.58	1133.1	1037.6
18.15	11.06	6.58	1132.5	1037.8
18.16	11.07	6.58	1132.7	1037.6
18.17	11.06	6.58	1133.2	1037.6
18.18	11.05	6.57	1133.5	1037.8
18.19	11.05	6.57	1133.4	1037.8
18.2	11.07	6.58	1133.4	1037.6
18.21	11.07	6.58	1133.1	1037.6
18.22	11.06	6.57	1133.7	1037.8
18.23	11.06	6.57	1133.5	1037.7
18.24	11.05	6.56	1133.6	1037.6
18.25	11.04	6.56	1133.3	1037.8
18.26	11.06	6.57	1133.5	1037.6
18.27	11.08	6.58	1133.6	1037.8
18.28	11.05	6.56	1133.7	1037.8
18.29	11.05	6.56	1133.9	1037.8
18.3	11.06	6.56	1133.9	1037.7
18.31	11.06	6.57	1134.0	1037.7
18.32	11.06	6.56	1134.6	1038.0
18.33	11.05	6.55	1133.9	1037.6
18.34	11.06	6.56	1133.7	1038.0
18.35	11.06	6.56	1134.0	1037.7
18.36	11.05	6.55	1134.7	1037.8
18.37	11.06	6.56	1134.4	1037.9
18.38	11.06	6.55	1134.3	1037.8
18.39	11.06	6.55	1134.3	1037.6
18.4	11.05	6.54	1134.9	1038.0
18.41	11.06	6.55	1134.3	1037.9
18.42	11.07	6.56	1135.0	1037.8
18.43	11.05	6.54	1134.5	1038.0
18.44	11.04	6.54	1134.6	1037.9
18.45	11.06	6.54	1134.9	1038.0
18.46	11.07	6.55	1134.5	1038.1
18.47	11.06	6.54	1135.0	1038.0
18.48	11.04	6.53	1134.8	1038.1
18.49	11.05	6.54	1135.1	1037.9
18.5	11.05	6.54	1135.2	1038.2
18.51	11.05	6.53	1135.3	1037.7
18.52	11.06	6.54	1135.0	1038.0
18.53	11.07	6.54	1134.8	1037.8
18.54	11.04	6.53	1135.3	1038.0
18.55	11.06	6.53	1134.7	1038.0
18.56	11.05	6.53	1134.8	1038.1
18.57	11.05	6.53	1134.9	1037.8
18.58	11.05	6.53	1135.6	1037.9
18.59	11.06	6.53	1135.8	1037.8
18.6	11.06	6.53	1135.3	1037.9
18.61	11.07	6.53	1135.4	1038.2
18.62	11.06	6.53	1135.0	1038.0
18.63	11.06	6.52	1135.6	1038.0
18.64	11.06	6.52	1136.1	1038.3
18.65	11.06	6.52	1135.8	1038.0
18.66	11.04	6.52	1135.9	1038.0
18.67	11.06	6.53	1135.8	1038.0
18.68	11.07	6.53	1136.1	1038.0
18.69	11.06	6.52	1135.9	1037.8
18.7	11.04	6.51	1135.6	1038.1
18.71	11.05	6.52	1135.1	1038.1
18.72	11.07	6.52	1135.7	1038.2
18.73	11.05	6.51	1136.3	1038.4
18.74	11.06	6.51	1135.8	1038.1
18.75	11.05	6.51	1135.7	1038.1
18.76	11.05	6.51	1135.8	1038.1
18.77	11.04	6.5	1136.3	1038.2
18.78	11.06	6.51	1135.9	1038.3
18.79	11.06	6.52	1135.8	1038.1
18.8	11.05	6.51	1135.8	1038.1
18.81	11.04	6.5	1136.4	1038.1
18.82	11.05	6.5	1136.3	1038.0
18.83	11.06	6.51	1135.8	1038.1
18.84	11.06	6.5	1136.0	1038.2
18.85	11.05	6.5	1136.1	1038.1
18.86	11.06	6.5	1136.3	1038.1
18.87	11.05	6.49	1136.4	1038.4
18.88	11.05	6.5	1136.5	1038.2
18.89	11.07	6.5	1136.4	1038.0
18.9	11.06	6.5	1136.4	1038.1
18.91	11.05	6.49	1136.3	1037.9
18.92	11.05	6.49	1136.6	1038.2
18.93	11.07	6.5	1136.3	1038.4
18.94	11.06	6.5	1136.5	1038.1
18.95	11.05	6.49	1136.3	1038.2
18.96	11.06	6.49	1136.6	1038.1
18.97	11.05	6.49	1136.6	1037.9
18.98	11.04	6.48	1135.8	1038.1
18.99	11.06	6.49	1136.9	1038.0
19.0	11.06	6.49	1136.6	1038.1
19.01	11.06	6.49	1137.1	1038.1
19.02	11.05	6.48	1136.7	1038.2
19.03	11.05	6.48	1136.8	1038.2
19.04	11.04	6.48	1137.2	1038.2
19.05	11.04	6.48	1136.8	1038.4
19.06	11.05	6.48	1136.9	1038.1
19.07	11.04	6.47	1136.8	1038.2
19.08	11.05	6.48	1136.9	1038.0
19.09	11.05	6.47	1136.9	1038.5
19.1	11.04	6.47	1136.9	1038.3
19.11	11.07	6.48	1136.7	1038.3
19.12	11.06	6.48	1137.0	1038.2
19.13	11.06	6.47	1137.5	1038.2
19.14	11.07	6.48	1137.3	1038.2
19.15	11.06	6.47	1136.9	1038.2
19.16	11.05	6.47	1137.3	1038.2
19.17	11.05	6.47	1137.1	1038.2
19.18	11.03	6.46	1137.4	1038.2
19.19	11.06	6.47	1137.6	1038.3
19.2	11.05	6.47	1137.6	1038.3
19.21	11.05	6.46	1137.6	1038.4
19.22	11.06	6.47	1138.0	1038.4
19.23	11.06	6.46	1138.0	1038.2
19.24	11.06	6.46	1137.6	1038.4
19.25	11.08	6.47	1137.4	1038.2
19.26	11.05	6.46	1137.8	1038.4
19.27	11.05	6.45	1138.0	1038.3
19.28	11.05	6.45	1137.9	1038.3
19.29	11.05	6.45	1137.9	1038.4
19.3	11.03	6.45	1137.4	1038.6
19.31	11.06	6.46	1137.9	1038.2
19.32	11.04	6.45	1137.8	1038.4
19.33	11.05	6.45	1138.0	1038.3
19.34	11.05	6.45	1137.7	1038.3
19.35	11.04	6.45	1137.8	1038.3
19.36	11.06	6.45	1138.2	1038.3
19.37	11.05	6.45	1137.9	1038.3
19.38	11.06	6.45	1138.3	1038.4
19.39	11.06	6.45	1137.8	1038.3
19.4	11.06	6.45	1138.4	1038.4
19.41	11.06	6.45	1138.4	1038.2
19.42	11.07	6.45	1138.4	1038.4
19.43	11.05	6.44	1138.3	1038.2
19.44	11.05	6.44	1138.0	1038.6
19.45	11.05	6.44	1138.7	1038.3
19.46	11.06	6.44	1138.4	1038.5
19.47	11.05	6.44	1138.3	1038.6
19.48	11.07	6.44	1138.2	1038.1
19.49	11.05	6.44	1138.8	1038.5
19.5	11.07	6.44	1138.8	1038.3
19.51	11.05	6.44	1138.5	1038.2
19.52	11.06	6.43	1138.3	1038.4
19.53	11.06	6.44	1138.1	1038.3
19.54	11.04	6.43	1138.5	1038.5
19.55	11.05	6.43	1138.6	1038.1
19.56	11.06	6.43	1139.5	1038.2
19.57	11.04	6.42	1138.7	1038.6
19.58	11.05	6.43	1139.1	1038.3
19.59	11.06	6.43	1138.6	1038.3
19.6	11.06	6.43	1138.9	1038.4
19.61	11.05	6.43	1138.3	1038.4
19.62	11.07	6.43	1138.4	1038.3
19.63	11.05	6.42	1138.8	1038.5
19.64	11.06	6.42	1138.4	1038.4
19.65	11.06	6.42	1139.2	1038.3
19.66	11.05	6.41	1138.7	1038.4
19.67	11.05	6.42	1138.9	1038.2
19.68	11.05	6.42	1138.7	1038.4
19.69	11.05	6.41	1138.8	1038.4
19.7	11.04	6.41	1139.1	1038.3
19.71	11.04	6.41	1138.2	1038.4
19.72	11.04	6.41	1138.9	1038.2
19.73	11.04	6.41	1138.6	1038.2
19.74	11.05	6.41	1138.9	1038.2
19.75	11.06	6.42	1138.5	1038.2
19.76	11.07	6.42	1138.6	1038.4
19.77	11.06	6.42	1139.2	1038.5
19.78	11.06	6.42	1139.2	1038.5
19.79	11.07	6.41	1139.4	1038.2
19.8	11.05	6.41	1138.9	1038.5
19.81	11.06	6.41	1139.3	1038.3
19.82	11.06	6.41	1139.2	1038.3
19.83	11.07	6.41	1139.3	1038.2
19.84	11.06	6.41	1139.0	1038.3
19.85	11.06	6.41	1139.4	1038.4
19.86	11.04	6.4	1139.4	1038.3
19.87	11.05	6.4	1139.7	1038.3
19.88	11.05	6.4	1139.4	1038.3
19.89	11.05	6.4	1139.0	1038.1
19.9	11.05	6.4	1139.4	1038.2
19.91	11.06	6.4	1139.0	1038.2
19.92	11.04	6.39	1139.0	1038.4
19.93	11.06	6.4	1138.9	1038.3
19.94	11.04	6.39	1139.5	1038.4
19.95	11.05	6.4	1139.7	1038.4
19.96	11.04	6.39	1139.6	1038.3
19.97	11.05	6.39	1139.7	1038.2
19.98	11.04	6.39	1139.1	1038.4
19.99	11.05	6.38	1139.6	1038.6
20.0	11.05	6.39	1139.5	1038.2
20.01	11.04	6.38	1139.3	1038.4
20.02	11.05	6.38	1139.5	1038.5
20.03	11.05	6.39	1139.9	1038.4
20.04	11.04	6.38	1140.1	1038.5
20.05	11.05	6.39	1140.0	1038.5
20.06	11.05	6.38	1140.2	1038.5
20.07	11.05	6.38	1139.2	1038.4
20.08	11.05	6.39	1140.0	1038.6
20.09	11.06	6.38	1140.2	1038.5
20.1	11.06	6.38	1140.2	1038.4
20.11	11.06	6.38	1140.1	1038.6
20.12	11.06	6.38	1140.3	1038.4
20.13	11.07	6.39	1140.7	1038.3
20.14	11.05	6.38	1140.0	1038.4
20.15	11.06	6.38	1139.4	1038.4
20.16	11.06	6.38	1139.5	1038.4
20.17	11.06	6.38	1140.6	1038.5
20.18	11.07	6.38	1140.4	1038.5
20.19	11.05	6.37	1140.8	1038.5
20.2	11.07	6.38	1140.4	1038.4
20.21	11.05	6.38	1139.9	1038.7
20.22	11.06	6.37	1140.4	1038.5
20.23	11.06	6.38	1139.9	1038.2
20.24	11.06	6.37	1140.5	1038.4
20.25	11.05	6.37	1140.3	1038.2
20.26	11.05	6.37	1140.3	1038.4
20.27	11.04	6.36	1140.1	1038.2
20.28	11.05	6.36	1140.5	1038.3
20.29	11.05	6.37	1140.2	1038.3
20.3	11.06	6.37	1140.4	1038.3
20.31	11.05	6.36	1140.3	1038.1
20.32	11.05	6.36	1140.1	1038.2
20.33	11.04	6.36	1139.9	1038.3
20.34	11.05	6.36	1140.2	1038.3
20.35	11.03	6.35	1140.6	1038.2
20.36	11.07	6.36	1140.0	1038.1
20.37	11.07	6.36	1140.2	1038.2
20.38	11.07	6.36	1140.0	1038.0
20.39	11.05	6.35	1140.4	1038.4
20.4	11.06	6.35	1140.7	1038.3
20.41	11.05	6.35	1141.2	1038.1
20.42	11.06	6.35	1140.8	1038.4
20.43	11.04	6.35	1140.4	1038.0
20.44	11.06	6.36	1140.9	1038.4
20.45	11.07	6.35	1140.9	1038.3
20.46	11.06	6.35	1141.4	1038.1
20.47	11.05	6.34	1140.6	1038.2
20.48	11.05	6.35	1141.0	1038.3
20.49	11.07	6.35	1140.9	1038.3
20.5	11.04	6.34	1141.1	1038.4
20.51	11.05	6.34	1140.7	1038.2
20.52	11.06	6.35	1140.8	1038.1
20.53	11.06	6.34	1141.5	1038.3
20.54	11.05	6.34	1140.8	1038.1
20.55	11.03	6.33	1140.9	1038.2
20.56	11.05	6.34	1140.4	1038.3
20.57	11.06	6.34	1140.9	1038.0
20.58	11.05	6.34	1141.0	1038.0
20.59	11.05	6.34	1141.2	1037.9
20.6	11.04	6.33	1141.0	1038.2
20.61	11.05	6.33	1140.6	1038.0
20.62	11.05	6.33	1141.1	1038.3
20.63	11.06	6.34	1141.0	1037.9
20.64	11.05	6.34	1141.2	1038.2
20.65	11.05	6.33	1140.8	1038.1
20.66	11.05	6.33	1141.3	1038.1
20.67	11.06	6.33	1141.6	1038.2
20.68	11.05	6.34	1141.2	1038.2
20.69	11.06	6.33	1141.5	1038.1
20.7	11.04	6.33	1141.2	1038.2
20.71	11.04	6.32	1141.8	1038.3
20.72	11.05	6.33	1141.4	1038.3
20.73	11.06	6.33	1142.0	1038.4
20.74	11.05	6.32	1141.4	1038.3
20.75	11.06	6.33	1141.4	1038.0
20.76	11.05	6.32	1141.7	1038.2
20.77	11.06	6.33	1141.7	1038.2
20.78	11.06	6.32	1141.1	1038.1
20.79	11.04	6.32	1141.2	1038.1
20.8	11.06	6.33	1141.2	1038.1
20.81	11.06	6.32	1141.4	1038.2
20.82	11.05	6.31	1141.3	1038.3
20.83	11.05	6.32	1141.5	1038.1
20.84	11.05	6.31	1141.9	1038.2
20.85	11.04	6.31	1141.6	1038.1
20.86	11.06	6.31	1141.3	1038.3
20.87	11.06	6.32	1140.5	1038.1
20.88	11.06	6.32	1141.0	1038.2
20.89	11.03	6.31	1142.0	1038.3
20.9	11.06	6.31	1142.0	1038.4
20.91	11.05	6.31	1142.4	1038.2
20.92	11.06	6.32	1141.3	1038.3
20.93	11.06	6.31	1141.6	1038.4
20.94	11.04	6.3	1142.0	1038.5
20.95	11.05	6.31	1142.0	1038.2
20.96	11.07	6.31	1141.4	1038.3
20.97	11.06	6.31	1141.5	1038.3
20.98	11.06	6.31	1142.4	1038.3
20.99	11.04	6.3	1142.0	1038.4
21.0	11.06	6.31	1142.0	1038.4
21.01	11.06	6.31	1141.6	1038.4
21.02	11.05	6.3	1142.6	1038.5
21.03	11.05	6.3	1142.2	1038.2
21.04	11.06	6.31	1142.1	1038.5
21.05	11.05	6.3	1141.8	1038.4
21.06	11.04	6.29	1141.8	1038.4
21.07	11.06	6.3	1142.1	1038.2
21.08	11.06	6.3	1142.3	1038.5
21.09	11.06	6.3	1142.5	1038.2
21.1	11.05	6.3	1141.7	1038.4
21.11	11.05	6.3	1142.0	1038.3
21.12	11.06	6.3	1142.4	1038.5
21.13	11.05	6.29	1142.1	1038.3
21.14	11.05	6.29	1142.4	1038.0
21.15	11.05	6.29	1142.1	1038.2
21.16	11.06	6.3	1142.9	1038.3
21.17	11.06	6.3	1142.5	1038.2
21.18	11.05	6.29	1142.6	1038.2
21.19	11.06	6.29	1142.0	1038.5
21.2	11.06	6.29	1142.7	1038.3
21.21	11.06	6.29	1142.7	1038.3
21.22	11.05	6.29	1142.7	1038.2
21.23	11.06	6.29	1142.6	1038.4
21.24	11.06	6.29	1142.1	1038.3
21.25	11.06	6.29	1142.6	1038.7
21.26	11.06	6.29	1142.9	1038.3
21.27	11.07	6.29	1142.7	1038.3
21.28	11.05	6.28	1142.5	1038.6
21.29	11.06	6.28	1142.4	1038.3
21.3	11.06	6.28	1142.8	1038.4
21.31	11.06	6.28	1142.7	1038.3
21.32	11.05	6.28	1142.5	1038.4
21.33	11.06	6.28	1142.6	1038.6
21.34	11.06	6.28	1142.6	1038.5
21.35	11.05	6.27	1142.4	1038.6
21.36	11.05	6.28	1143.2	1038.5
21.37	11.06	6.28	1142.8	1038.6
21.38	11.05	6.27	1142.6	1038.4
21.39	11.07	6.28	1143.3	1038.4
21.4	11.06	6.28	1142.9	1038.4
21.41	11.05	6.27	1142.7	1038.4
21.42	11.06	6.28	1142.6	1038.6
21.43	11.06	6.27	1143.0	1038.3
21.44	11.04	6.26	1143.1	1038.4
21.45	11.07	6.27	1143.0	1038.3
21.46	11.06	6.27	1142.8	1038.4
21.47	11.05	6.27	1143.4	1038.6
21.48	11.06	6.27	1143.0	1038.2
21.49	11.06	6.27	1142.9	1038.6
21.5	11.05	6.26	1143.2	1038.5
21.51	11.07	6.27	1142.9	1038.3
21.52	11.06	6.27	1143.5	1038.4
21.53	11.07	6.27	1143.2	1038.4
21.54	11.04	6.26	1143.2	1038.5
21.55	11.04	6.26	1142.9	1038.5
21.56	11.07	6.27	1143.0	1038.4
21.57	11.05	6.26	1143.3	1038.4
21.58	11.06	6.26	1143.2	1038.4
21.59	11.05	6.26	1143.4	1038.5
21.6	11.05	6.26	1143.3	1038.6
21.61	11.04	6.25	1143.3	1038.5
21.62	11.06	6.26	1143.6	1038.4
21.63	11.06	6.26	1143.4	1038.1
21.64	11.05	6.25	1143.1	1038.2
21.65	11.05	6.25	1143.3	1038.1
21.66	11.06	6.25	1143.1	1038.2
21.67	11.04	6.25	1143.0	1038.0
21.68	11.06	6.25	1143.6	1038.3
21.69	11.05	6.25	1142.8	1038.2
21.7	11.05	6.25	1142.8	1038.1
21.71	11.04	6.25	1143.1	1038.1
21.72	11.07	6.26	1143.5	1038.0
21.73	11.05	6.25	1143.3	1038.3
21.74	11.05	6.24	1143.4	1038.1
21.75	11.05	6.25	1143.9	1038.3
21.76	11.06	6.25	1143.5	1038.2
21.77	11.05	6.24	1143.8	1038.1
21.78	11.05	6.24	1142.7	1038.1
21.79	11.06	6.25	1143.3	1037.9
21.8	11.05	6.24	1143.6	1038.2
21.81	11.05	6.24	1143.8	1038.0
21.82	11.06	6.24	1143.7	1038.2
21.83	11.05	6.24	1143.4	1038.2
21.84	11.05	6.24	1143.0	1038.1
21.85	11.05	6.24	1143.4	1038.1
21.86	11.06	6.24	1143.8	1038.0
21.87	11.06	6.24	1143.3	1038.2
21.88	11.05	6.24	1143.5	1038.4
21.89	11.06	6.24	1144.2	1038.0
21.9	11.05	6.23	1144.1	1038.2
21.91	11.05	6.24	1143.7	1038.2
21.92	11.05	6.23	1143.5	1038.4
21.93	11.05	6.23	1144.0	1038.2
21.94	11.06	6.24	1143.8	1038.3
21.95	11.06	6.23	1144.0	1038.3
21.96	11.05	6.23	1143.6	1038.4
21.97	11.05	6.23	1143.5	1038.2
21.98	11.05	6.23	1143.7	1038.2
21.99	11.06	6.23	1143.7	1038.3
22.0	11.07	6.23	1143.7	1038.1
22.01	11.07	6.23	1143.8	1038.0
22.02	11.06	6.23	1144.4	1038.4
22.03	11.04	6.22	1143.5	1038.1
22.04	11.06	6.23	1143.1	1038.2
22.05	11.06	6.23	1143.6	1038.3
22.06	11.04	6.22	1143.8	1038.3
22.07	11.06	6.22	1144.0	1038.2
22.08	11.05	6.23	1144.0	1038.3
22.09	11.05	6.22	1144.1	1038.1
22.1	11.05	6.22	1144.5	1038.2
22.11	11.05	6.22	1143.9	1038.2
22.12	11.05	6.22	1144.1	1038.3
22.13	11.05	6.22	1144.2	1038.4
22.14	11.06	6.23	1143.8	1038.2
22.15	11.05	6.22	1144.1	1038.0
22.16	11.05	6.22	1143.9	1038.0
22.17	11.05	6.22	1143.8	1038.0
22.18	11.06	6.22	1143.9	1038.2
22.19	11.05	6.21	1143.9	1038.1
22.2	11.05	6.21	1144.2	1038.1
22.21	11.06	6.22	1144.0	1038.2
22.22	11.05	6.21	1144.5	1038.1
22.23	11.07	6.22	1144.2	1038.2
22.24	11.05	6.21	1143.9	1038.2
22.25	11.06	6.21	1144.4	1038.3
22.26	11.05	6.21	1144.2	1038.3
22.27	11.05	6.21	1143.6	1038.0
22.28	11.06	6.21	1143.7	1038.3
22.29	11.06	6.21	1144.0	1038.1
22.3	11.06	6.21	1144.1	1038.0
22.31	11.04	6.2	1143.8	1038.0
22.32	11.05	6.2	1143.7	1038.2
22.33	11.05	6.21	1144.3	1038.3
22.34	11.05	6.21	1144.2	1038.0
22.35	11.04	6.2	1144.2	1038.0
22.36	11.06	6.2	1144.2	1038.0
22.37	11.05	6.2	1144.1	1037.8
22.38	11.06	6.2	1144.6	1038.1
22.39	11.05	6.2	1144.0	1037.9
22.4	11.06	6.2	1144.5	1038.2
22.41	11.05	6.2	1144.2	1037.9
22.42	11.06	6.2	1144.1	1037.9
22.43	11.06	6.2	1144.4	1038.0
22.44	11.06	6.2	1144.6	1038.0
22.45	11.06	6.2	1144.4	1037.9
22.46	11.06	6.2	1144.0	1037.8
22.47	11.05	6.2	1144.2	1037.8
22.48	11.06	6.2	1144.2	1038.0
22.49	11.05	6.2	1144.4	1037.8
22.5	11.05	6.19	1144.7	1038.1
22.51	11.05	6.19	1144.0	1037.9
22.52	11.06	6.19	1144.5	1037.9
22.53	11.06	6.19	1144.2	1037.8
22.54	11.05	6.19	1144.4	1038.0
22.55	11.06	6.19	1144.3	1038.0
22.56	11.05	6.19	1144.4	1038.2
22.57	11.05	6.19	1144.9	1037.8
22.58	11.05	6.19	1144.6	1037.9
22.59	11.07	6.19	1144.6	1038.0
22.6	11.04	6.18	1144.6	1037.9
22.61	11.05	6.19	1145.1	1037.7
22.62	11.06	6.19	1144.7	1037.9
22.63	11.05	6.18	1144.6	1037.9
22.64	11.06	6.19	1144.4	1038.0
22.65	11.05	6.18	1144.8	1037.9
22.66	11.06	6.18	1144.7	1038.1
22.67	11.07	6.18	1144.4	1038.1
22.68	11.06	6.19	1144.7	1038.0
22.69	11.06	6.19	1144.4	1038.0
22.7	11.05	6.18	1144.6	1038.0
22.71	11.07	6.18	1144.7	1038.0
22.72	11.05	6.18	1144.5	1038.0
22.73	11.06	6.18	1144.2	1037.9
22.74	11.06	6.18	1144.6	1037.9
22.75	11.05	6.18	1144.5	1037.8
22.76	11.06	6.18	1144.6	1038.0
22.77	11.07	6.18	1144.7	1037.6
22.78	11.05	6.17	1144.5	1037.8
22.79	11.06	6.18	1144.7	1037.6
22.8	11.05	6.17	1144.7	1037.7
22.81	11.05	6.17	1144.8	1037.9
22.82	11.06	6.17	1144.1	1037.9
22.83	11.05	6.17	1144.4	1037.9
22.84	11.05	6.17	1144.3	1038.1
22.85	11.06	6.17	1144.4	1037.6
22.86	11.05	6.17	1144.1	1037.9
22.87	11.05	6.17	1144.4	1037.8
22.88	11.05	6.17	1144.7	1037.7
22.89	11.05	6.17	1144.4	1037.7
22.9	11.06	6.16	1144.8	1037.8
22.91	11.05	6.16	1144.1	1037.4
22.92	11.06	6.17	1144.4	1037.5
22.93	11.06	6.17	1144.3	1037.5
22.94	11.04	6.16	1144.2	1037.7
22.95	11.05	6.17	1144.7	1037.5
22.96	11.05	6.16	1144.0	1038.1
22.97	11.07	6.17	1144.5	1037.4
22.98	11.06	6.16	1144.0	1038.0
22.99	11.05	6.16	1144.6	1037.7
23.0	11.05	6.16	1144.2	1037.7
23.01	11.05	6.16	1144.0	1037.9
23.02	11.06	6.16	1144.3	1037.6
23.03	11.06	6.16	1144.6	1037.4
23.04	11.05	6.15	1144.8	1037.6
23.05	11.05	6.15	1144.8	1037.4
23.06	11.06	6.16	1144.4	1037.5
23.07	11.06	6.16	1144.3	1037.5
23.08	11.07	6.16	1144.3	1037.5
23.09	11.05	6.16	1144.7	1037.6
23.1	11.06	6.16	1143.7	1037.8
23.11	11.05	6.15	1144.4	1037.6
23.12	11.06	6.15	1144.3	1037.6
23.13	11.05	6.15	1144.6	1037.7
23.14	11.06	6.15	1144.2	1037.5
23.15	11.05	6.15	1144.5	1037.8
23.16	11.07	6.16	1144.6	1037.5
23.17	11.05	6.15	1144.4	1037.7
23.18	11.06	6.15	1144.5	1037.5
23.19	11.04	6.14	1144.0	1037.4
23.2	11.06	6.15	1144.7	1037.5
23.21	11.06	6.15	1144.2	1037.5
23.22	11.06	6.15	1144.5	1037.5
23.23	11.05	6.14	1144.1	1037.5
23.24	11.06	6.15	1144.1	1037.6
23.25	11.06	6.15	1144.6	1037.4
23.26	11.06	6.15	1144.4	1037.5
23.27	11.05	6.14	1144.4	1037.6
23.28	11.06	6.15	1144.1	1037.5
23.29	11.05	6.14	1144.8	1037.4
23.3	11.06	6.15	1144.5	1037.7
23.31	11.06	6.14	1144.6	1037.3
23.32	11.04	6.14	1144.3	1037.4
23.33	11.05	6.14	1144.5	1037.4
23.34	11.06	6.14	1144.6	1037.4
23.35	11.06	6.14	1144.3	1037.4
23.36	11.06	6.14	1144.7	1037.5
23.37	11.05	6.14	1144.8	1037.4
23.38	11.06	6.14	1144.9	1037.3
23.39	11.06	6.14	1144.9	1037.4
23.4	11.05	6.14	1144.7	1037.2
23.41	11.05	6.13	1144.5	1037.0
23.42	11.06	6.13	1144.2	1037.2
23.43	11.05	6.13	1144.5	1037.0
23.44	11.05	6.13	1144.6	1037.0
23.45	11.06	6.13	1144.2	1036.9
23.46	11.05	6.13	1144.0	1037.1
23.47	11.06	6.13	1144.4	1037.0
23.48	11.05	6.13	1144.8	1037.1
23.49	11.07	6.13	1144.5	1036.9
23.5	11.05	6.13	1144.6	1036.8
23.51	11.05	6.13	1144.0	1036.9
23.52	11.05	6.13	1144.6	1037.0
23.53	11.06	6.13	1144.5	1036.9
23.54	11.06	6.13	1144.6	1037.3
23.55	11.06	6.13	1144.4	1036.7
23.56	11.05	6.13	1144.5	1037.0
23.57	11.06	6.13	1145.0	1037.0
23.58	11.04	6.12	1144.8	1037.2
23.59	11.06	6.13	1144.7	1036.9
23.6	11.06	6.13	1144.8	1036.7
23.61	11.05	6.12	1144.8	1036.7
23.62	11.05	6.12	1144.8	1037.0
23.63	11.05	6.12	1144.8	1037.0
23.64	11.05	6.12	1144.5	1036.9
23.65	11.05	6.12	1145.0	1036.8
23.66	11.06	6.12	1145.0	1036.9
23.67	11.05	6.12	1144.6	1036.4
23.68	11.06	6.12	1145.2	1036.8
23.69	11.05	6.12	1144.6	1036.8
23.7	11.05	6.12	1144.8	1037.1
23.71	11.05	6.12	1145.2	1036.9
23.72	11.06	6.12	1144.7	1036.8
23.73	11.05	6.12	1145.0	1037.1
23.74	11.06	6.12	1144.2	1036.8
23.75	11.05	6.11	1145.0	1036.8
23.76	11.06	6.11	1145.0	1037.0
23.77	11.05	6.11	1144.8	1037.0
23.78	11.06	6.11	1144.1	1037.0
23.79	11.04	6.11	1144.4	1037.0
23.8	11.06	6.11	1144.4	1037.1
23.81	11.06	6.11	1144.5	1036.8
23.82	11.06	6.11	1144.7	1037.0
23.83	11.06	6.11	1144.8	1036.8
23.84	11.05	6.11	1144.4	1037.0
23.85	11.05	6.11	1144.6	1036.8
23.86	11.06	6.11	1144.4	1037.3
23.87	11.05	6.11	1144.4	1036.7
23.88	11.06	6.11	1144.2	1037.1
23.89	11.05	6.11	1144.6	1036.8
23.9	11.07	6.11	1144.9	1037.0
23.91	11.06	6.11	1144.8	1036.6
23.92	11.05	6.1	1144.2	1036.7
23.93	11.06	6.1	1144.3	1036.7
23.94	11.06	6.11	1144.5	1036.8
23.95	11.06	6.11	1144.6	1036.6
23.96	11.06	6.1	1144.6	1036.7
23.97	11.05	6.1	1144.5	1036.7
23.98	11.05	6.1	1144.8	1036.6
23.99	11.05	6.1	1144.4	1036.7
24.0	11.05	6.1	1144.6	1036.7
24.01	11.05	6.1	1144.3	1037.0
24.02	11.06	6.1	1144.0	1037.0
24.03	11.06	6.1	1144.5	1036.8
24.04	11.05	6.1	1144.4	1036.6
24.05	11.06	6.1	1144.5	1036.5
24.06	11.06	6.1	1143.9	1037.0
24.07	11.05	6.1	1144.6	1036.5
24.08	11.04	6.09	1144.5	1037.3
24.09	11.05	6.1	1144.8	1036.6
24.1	11.06	6.1	1144.6	1036.8
24.11	11.06	6.1	1144.9	1036.8
24.12	11.05	6.09	1144.7	1036.8
24.13	11.06	6.09	1144.7	1037.0
24.14	11.05	6.09	1144.3	1036.9
24.15	11.06	6.09	1144.3	1036.7
24.16	11.05	6.09	1144.2	1036.6
24.17	11.06	6.09	1144.5	1036.6
24.18	11.04	6.09	1144.0	1036.8
24.19	11.07	6.09	1143.8	1036.8
24.2	11.05	6.09	1144.1	1036.5
24.21	11.06	6.08	1144.4	1036.8
24.22	11.05	6.09	1144.3	1036.5
24.23	11.06	6.09	1144.2	1036.8
24.24	11.05	6.09	1143.5	1036.4
24.25	11.06	6.09	1144.0	1036.5
24.26	11.04	6.08	1144.3	1036.8
24.27	11.06	6.08	1144.0	1036.3
24.28	11.05	6.08	1144.2	1036.4
24.29	11.05	6.08	1143.5	1036.5
24.3	11.05	6.08	1144.2	1036.5
24.31	11.05	6.08	1144.5	1036.5
24.32	11.06	6.08	1144.1	1036.4
24.33	11.06	6.08	1144.1	1036.4
24.34	11.04	6.08	1144.5	1036.6
24.35	11.06	6.08	1144.6	1036.4
24.36	11.05	6.08	1144.7	1036.5
24.37	11.05	6.08	1144.1	1036.4
24.38	11.05	6.08	1143.8	1036.4
24.39	11.06	6.08	1144.2	1036.4
24.4	11.06	6.08	1144.3	1036.3
24.41	11.05	6.07	1144.0	1036.5
24.42	11.05	6.07	1143.6	1036.3
24.43	11.05	6.08	1144.0	1036.2
24.44	11.05	6.07	1144.1	1036.5
24.45	11.05	6.08	1144.0	1036.2
24.46	11.05	6.07	1143.6	1036.4
24.47	11.05	6.07	1144.0	1036.1
24.48	11.07	6.08	1144.7	1036.2
24.49	11.05	6.07	1144.2	1036.2
24.5	11.06	6.07	1143.8	1036.4
24.51	11.06	6.07	1144.2	1036.2
24.52	11.06	6.07	1144.4	1036.3
24.53	11.05	6.07	1144.5	1036.0
24.54	11.06	6.07	1144.4	1036.3
24.55	11.05	6.07	1143.8	1036.0
24.56	11.06	6.07	1143.7	1036.2
24.57	11.05	6.07	1144.3	1036.2
24.58	11.05	6.07	1144.1	1036.0
24.59	11.05	6.06	1144.3	1036.1
24.6	11.06	6.07	1144.0	1036.0
24.61	11.05	6.07	1144.0	1036.0
24.62	11.05	6.06	1143.9	1036.0
24.63	11.06	6.07	1144.4	1036.1
24.64	11.06	6.06	1143.9	1036.1
24.65	11.06	6.06	1143.8	1036.1
24.66	11.05	6.06	1144.1	1036.3
24.67	11.05	6.06	1143.8	1036.2
24.68	11.06	6.06	1143.5	1036.5
24.69	11.06	6.06	1143.3	1036.2
24.7	11.06	6.06	1143.3	1036.7
24.71	11.06	6.06	1144.0	1036.3
24.72	11.05	6.06	1144.2	1036.3
24.73	11.05	6.06	1143.8	1036.0
24.74	11.06	6.06	1143.8	1036.6
24.75	11.06	6.06	1144.1	1036.3
24.76	11.05	6.06	1144.2	1036.1
24.77	11.06	6.06	1144.1	1035.9
24.78	11.05	6.06	1144.0	1036.1
24.79	11.06	6.06	1143.5	1035.9
24.8	11.06	6.06	1143.3	1036.0
24.81	11.06	6.06	1143.9	1035.9
24.82	11.05	6.05	1143.7	1036.1
24.83	11.06	6.06	1143.6	1036.0
24.84	11.05	6.05	1143.8	1036.2
24.85	11.06	6.05	1144.1	1035.8
24.86	11.04	6.05	1144.0	1035.9
24.87	11.06	6.05	1143.7	1035.7
24.88	11.05	6.05	1143.4	1035.8
24.89	11.05	6.05	1144.2	1035.6
24.9	11.05	6.05	1143.6	1035.8
24.91	11.05	6.05	1144.2	1036.0
24.92	11.05	6.05	1143.3	1035.8
24.93	11.06	6.05	1143.8	1036.0
24.94	11.06	6.05	1144.0	1035.8
24.95	11.06	6.05	1143.9	1035.6
24.96	11.05	6.05	1143.8	1035.7
24.97	11.05	6.04	1144.0	1035.6
24.98	11.04	6.04	1143.5	1036.0
24.99	11.05	6.04	1143.6	1035.5
25.0	11.06	6.04	1143.6	1035.8
25.01	11.06	6.04	1143.0	1035.7
25.02	11.06	6.05	1143.5	1035.8
25.03	11.05	6.04	1143.7	1035.8
25.04	11.06	6.04	1143.1	1035.8
25.05	11.07	6.05	1143.3	1035.6
25.06	11.06	6.04	1143.4	1035.5
25.07	11.06	6.04	1144.0	1035.4
25.08	11.06	6.04	1144.0	1035.4
25.09	11.05	6.04	1144.1	1035.7
25.1	11.06	6.04	1143.4	1035.5
25.11	11.05	6.04	1143.6	1035.5
25.12	11.05	6.04	1143.5	1035.8
25.13	11.05	6.04	1143.7	1035.6
25.14	11.05	6.04	1143.8	1035.4
25.15	11.05	6.04	1143.4	1035.5
25.16	11.06	6.04	1143.9	1035.6
25.17	11.05	6.03	1143.5	1035.4
25.18	11.06	6.04	1143.6	1035.5
25.19	11.05	6.03	1143.3	1035.8
25.2	11.06	6.03	1143.1	1035.5
25.21	11.05	6.03	1143.6	1035.7
25.22	11.05	6.03	1143.3	1035.4
25.23	11.05	6.03	1143.8	1035.5
25.24	11.06	6.03	1142.8	1035.6
25.25	11.07	6.04	1143.8	1035.3
25.26	11.06	6.03	1143.5	1035.8
25.27	11.06	6.03	1143.7	1035.7
25.28	11.07	6.03	1143.5	1035.4
25.29	11.05	6.03	1143.1	1035.8
25.3	11.07	6.03	1143.6	1035.6
25.31	11.05	6.03	1143.7	1035.6
25.32	11.05	6.03	1143.1	1035.5
25.33	11.05	6.03	1143.2	1035.6
25.34	11.06	6.03	1143.8	1035.6
25.35	11.05	6.03	1144.0	1035.6
25.36	11.05	6.03	1143.3	1035.7
25.37	11.05	6.03	1143.3	1035.5
25.38	11.05	6.02	1143.2	1035.5
25.39	11.05	6.02	1143.4	1035.5
25.4	11.05	6.02	1142.9	1035.4
25.41	11.06	6.03	1143.2	1035.4
25.42	11.06	6.02	1142.8	1035.4
25.43	11.05	6.02	1142.6	1035.5
25.44	11.05	6.02	1142.9	1035.6
25.45	11.05	6.02	1142.8	1035.3
25.46	11.06	6.03	1142.9	1035.6
25.47	11.06	6.02	1142.4	1035.2
25.48	11.06	6.02	1143.0	1035.6
25.49	11.05	6.02	1143.3	1035.2
25.5	11.06	6.02	1143.2	1035.3
25.51	11.07	6.02	1143.1	1035.2
25.52	11.05	6.01	1142.9	1035.2
25.53	11.05	6.01	1143.4	1035.4
25.54	11.05	6.01	1143.2	1035.3
25.55	11.06	6.02	1143.3	1035.2
25.56	11.06	6.02	1143.3	1035.2
25.57	11.06	6.02	1143.4	1035.0
25.58	11.05	6.02	1143.3	1035.2
25.59	11.07	6.02	1143.4	1035.2
25.6	11.06	6.02	1143.4	1035.0
25.61	11.07	6.02	1143.2	1035.0
25.62	11.05	6.01	1143.0	1035.1
25.63	11.06	6.01	1142.6	1035.0
25.64	11.05	6.01	1143.1	1035.0
25.65	11.07	6.01	1143.6	1034.9
25.66	11.05	6.01	1143.0	1035.0
25.67	11.06	6.01	1143.1	1034.8
25.68	11.05	6.01	1143.4	1034.9
25.69	11.07	6.01	1144.0	1034.9
25.7	11.07	6.02	1142.9	1034.9
25.71	11.06	6.01	1143.2	1034.8
25.72	11.06	6.01	1143.5	1035.0
25.73	11.06	6.01	1143.2	1034.9
25.74	11.06	6.01	1143.6	1034.9
25.75	11.06	6.01	1142.6	1035.0
25.76	11.05	6.01	1143.0	1035.0
25.77	11.06	6.01	1143.3	1034.7
25.78	11.07	6.01	1143.4	1035.0
25.79	11.06	6.0	1143.0	1034.9
25.8	11.06	6.01	1143.1	1035.0
25.81	11.05	6.0	1143.3	1034.9
25.82	11.06	6.0	1142.8	1034.9
25.83	11.06	6.0	1143.4	1034.8
25.84	11.05	6.0	1142.2	1034.7
25.85	11.05	6.0	1143.4	1034.8
25.86	11.05	6.0	1142.9	1034.9
25.87	11.06	6.0	1142.8	1035.0
25.88	11.07	6.0	1142.2	1035.1
25.89	11.04	6.0	1142.4	1034.6
25.9	11.05	6.0	1142.8	1035.0
25.91	11.05	6.0	1142.9	1034.6
25.92	11.06	6.0	1142.8	1034.9
25.93	11.06	6.0	1142.5	1034.7
25.94	11.06	5.99	1142.5	1034.9
25.95	11.06	6.0	1142.9	1034.9
25.96	11.06	6.0	1142.4	1034.5
25.97	11.05	6.0	1142.8	1034.6
25.98	11.06	6.0	1142.5	1034.7
25.99	11.05	5.99	1143.2	1034.5
26.0	11.06	5.99	1142.9	1034.9
26.01	11.06	6.0	1142.8	1034.4
26.02	11.07	5.99	1142.4	1034.6
26.03	11.06	5.99	1142.6	1034.4
26.04	11.05	5.99	1142.7	1034.6
26.05	11.05	5.99	1142.6	1034.7
26.06	11.07	5.99	1142.4	1035.0
26.07	11.06	5.99	1142.2	1034.8
26.08	11.05	5.99	1142.7	1034.9
26.09	11.06	5.99	1142.7	1034.8
26.1	11.05	5.99	1142.7	1035.0
26.11	11.05	5.99	1142.8	1034.7
26.12	11.06	5.99	1142.5	1034.9
26.13	11.06	5.99	1142.8	1035.0
26.14	11.05	5.99	1143.0	1034.5
26.15	11.05	5.99	1143.1	1034.4
26.16	11.06	5.99	1142.7	1034.2
26.17	11.06	5.99	1142.8	1034.3
26.18	11.06	5.99	1142.8	1034.5
26.19	11.06	5.99	1142.6	1034.4
26.2	11.04	5.98	1142.5	1034.4
26.21	11.06	5.99	1142.6	1034.4
26.22	11.06	5.99	1142.8	1034.4
26.23	11.06	5.99	1142.9	1034.4
26.24	11.06	5.98	1142.3	1034.3
26.25	11.06	5.98	1142.6	1034.5
26.26	11.05	5.98	1142.4	1034.4
26.27	11.05	5.98	1142.7	1034.3
26.28	11.07	5.99	1142.3	1034.5
26.29	11.06	5.98	1141.6	1034.4
26.3	11.05	5.98	1142.2	1034.4
26.31	11.05	5.98	1142.6	1034.2
26.32	11.06	5.98	1142.6	1034.4
26.33	11.06	5.98	1142.8	1034.3
26.34	11.06	5.98	1142.0	1034.4
26.35	11.06	5.98	1142.3	1034.2
26.36	11.06	5.98	1142.7	1034.3
26.37	11.06	5.98	1142.5	1034.2
26.38	11.06	5.98	1142.4	1034.4
26.39	11.07	5.98	1142.0	1034.3
26.4	11.06	5.98	1142.5	1034.2
26.41	11.05	5.97	1142.6	1034.6
26.42	11.05	5.97	1142.0	1034.2
26.43	11.06	5.97	1142.3	1034.0
26.44	11.06	5.98	1142.0	1034.3
26.45	11.06	5.98	1142.1	1034.0
26.46	11.05	5.97	1142.2	1034.1
26.47	11.06	5.97	1142.0	1033.9
26.48	11.06	5.97	1142.0	1034.3
26.49	11.06	5.97	1142.4	1033.9
26.5	11.07	5.98	1142.3	1034.1
26.51	11.06	5.97	1142.8	1034.2
26.52	11.06	5.97	1142.1	1033.9
26.53	11.05	5.97	1142.9	1034.2
26.54	11.06	5.97	1142.1	1034.0
26.55	11.06	5.97	1142.4	1034.1
26.56	11.05	5.97	1142.1	1034.0
26.57	11.05	5.97	1141.8	1034.0
26.58	11.06	5.97	1141.8	1034.0
26.59	11.06	5.97	1142.2	1034.1
26.6	11.06	5.97	1142.0	1034.1
26.61	11.06	5.97	1142.3	1034.1
26.62	11.06	5.97	1142.4	1034.0
26.63	11.05	5.97	1142.4	1033.9
26.64	11.05	5.96	1141.8	1033.9
26.65	11.05	5.97	1142.1	1033.8
26.66	11.06	5.97	1142.0	1034.1
26.67	11.05	5.97	1142.3	1033.9
26.68	11.06	5.97	1142.2	1033.9
26.69	11.05	5.96	1142.2	1033.9
26.7	11.06	5.96	1141.9	1034.0
26.71	11.06	5.97	1142.0	1033.7
26.72	11.06	5.96	1142.1	1034.0
26.73	11.06	5.96	1142.4	1033.6
26.74	11.05	5.96	1142.0	1034.0
26.75	11.06	5.96	1141.6	1033.8
26.76	11.06	5.96	1142.2	1033.9
26.77	11.05	5.96	1142.0	1033.8
26.78	11.07	5.96	1141.4	1033.7
26.79	11.05	5.96	1141.6	1033.8
26.8	11.05	5.96	1141.5	1033.9
26.81	11.07	5.96	1141.9	1033.8
26.82	11.05	5.96	1141.6	1033.8
26.83	11.06	5.96	1141.8	1033.6
26.84	11.06	5.95	1141.3	1033.8
26.85	11.06	5.96	1141.5	1033.9
26.86	11.06	5.96	1141.8	1033.9
26.87	11.06	5.96	1142.1	1033.9
26.88	11.06	5.96	1141.6	1033.8
26.89	11.06	5.96	1141.4	1033.6
26.9	11.05	5.95	1141.8	1033.8
26.91	11.06	5.96	1141.8	1033.9
26.92	11.06	5.96	1141.6	1033.7
26.93	11.06	5.96	1141.6	1034.0
26.94	11.06	5.96	1141.5	1033.7
26.95	11.06	5.95	1141.8	1033.8
26.96	11.05	5.95	1141.7	1034.0
26.97	11.06	5.95	1141.1	1033.8
26.98	11.06	5.95	1140.9	1033.6
26.99	11.07	5.95	1142.0	1033.6
27.0	11.05	5.95	1141.9	1033.6
27.01	11.06	5.95	1141.7	1033.9
27.02	11.06	5.95	1140.9	1033.8
27.03	11.05	5.94	1141.6	1033.6
27.04	11.06	5.95	1141.8	1033.8
27.05	11.05	5.95	1141.2	1033.6
27.06	11.06	5.95	1141.6	1033.5
27.07	11.07	5.95	1141.1	1033.6
27.08	11.06	5.95	1141.2	1033.7
27.09	11.06	5.94	1140.9	1033.5
27.1	11.05	5.94	1140.8	1033.9
27.11	11.05	5.94	1140.8	1033.6
27.12	11.06	5.95	1141.1	1034.0
27.13	11.05	5.94	1141.0	1033.6
27.14	11.05	5.94	1140.6	1033.5
27.15	11.06	5.94	1141.3	1033.5
27.16	11.05	5.94	1140.7	1033.6
27.17	11.06	5.94	1140.9	1033.4
27.18	11.06	5.94	1140.3	1033.4
27.19	11.06	5.95	1140.8	1033.4
27.2	11.06	5.94	1140.3	1033.4
27.21	11.05	5.94	1140.4	1033.6
27.22	11.06	5.94	1140.6	1033.7
27.23	11.06	5.94	1140.6	1033.4
27.24	11.06	5.94	1140.6	1033.5
27.25	11.06	5.94	1140.4	1033.4
27.26	11.06	5.94	1140.5	1033.2
27.27	11.06	5.94	1140.5	1033.1
27.28	11.06	5.94	1140.4	1033.2
27.29	11.06	5.94	1140.5	1033.1
27.3	11.06	5.94	1140.3	1033.2
27.31	11.05	5.93	1140.6	1033.4
27.32	11.07	5.94	1140.2	1033.4
27.33	11.05	5.93	1140.5	1033.0
27.34	11.06	5.94	1140.2	1033.6
27.35	11.05	5.94	1140.4	1033.2
27.36	11.06	5.93	1140.8	1033.4
27.37	11.05	5.94	1140.4	1033.3
27.38	11.07	5.94	1140.0	1033.4
27.39	11.05	5.93	1139.9	1033.2
27.4	11.06	5.94	1140.2	1033.3
27.41	11.06	5.94	1140.4	1033.4
27.42	11.07	5.94	1140.3	1033.5
27.43	11.06	5.94	1140.0	1033.2
27.44	11.06	5.93	1140.3	1033.3
27.45	11.05	5.93	1140.8	1033.1
27.46	11.06	5.93	1140.6	1033.2
27.47	11.05	5.93	1140.3	1033.2
27.48	11.06	5.93	1140.2	1033.6
27.49	11.06	5.93	1140.9	1033.0
27.5	11.07	5.93	1140.4	1033.3
27.51	11.06	5.93	1140.5	1033.1
27.52	11.05	5.93	1139.9	1033.3
27.53	11.06	5.93	1140.4	1033.1
27.54	11.05	5.93	1140.3	1033.4
27.55	11.06	5.93	1140.4	1033.1
27.56	11.06	5.93	1140.5	1033.4
27.57	11.07	5.93	1140.0	1033.0
27.58	11.06	5.93	1140.0	1033.0
27.59	11.06	5.93	1140.0	1033.2
27.6	11.06	5.93	1139.8	1032.9
27.61	11.07	5.93	1139.9	1033.1
27.62	11.06	5.93	1139.8	1032.8
27.63	11.05	5.92	1140.4	1032.9
27.64	11.06	5.92	1140.0	1033.0
27.65	11.07	5.93	1140.1	1032.8
27.66	11.05	5.93	1140.0	1033.0
27.67	11.07	5.93	1140.4	1033.0
27.68	11.06	5.92	1140.3	1032.9
27.69	11.06	5.92	1140.4	1033.0
27.7	11.05	5.92	1140.1	1032.8
27.71	11.07	5.93	1140.0	1032.8
27.72	11.05	5.92	1140.2	1032.9
27.73	11.06	5.92	1140.2	1032.8
27.74	11.06	5.92	1140.0	1033.0
27.75	11.06	5.92	1139.5	1033.1
27.76	11.06	5.92	1140.0	1033.0
27.77	11.06	5.92	1140.0	1033.1
27.78	11.05	5.92	1140.1	1032.7
27.79	11.06	5.92	1140.0	1032.8
27.8	11.06	5.92	1139.8	1033.1
27.81	11.06	5.92	1139.9	1032.7
27.82	11.06	5.92	1139.8	1033.0
27.83	11.05	5.91	1140.6	1032.9
27.84	11.06	5.92	1139.5	1032.9
27.85	11.06	5.92	1140.3	1032.7
27.86	11.06	5.92	1139.8	1032.9
27.87	11.06	5.92	1140.2	1032.8
27.88	11.06	5.92	1139.6	1032.9
27.89	11.06	5.92	1139.5	1032.7
27.9	11.06	5.92	1140.1	1032.9
27.91	11.06	5.91	1140.0	1032.5
27.92	11.07	5.92	1139.7	1032.9
27.93	11.06	5.91	1139.4	1032.6
27.94	11.05	5.91	1139.8	1033.0
27.95	11.06	5.92	1139.9	1033.0
27.96	11.05	5.91	1139.6	1032.8
27.97	11.07	5.92	1139.6	1032.7
27.98	11.06	5.91	1139.3	1032.7
27.99	11.06	5.91	1139.8	1032.4
28.0	11.06	5.91	1139.5	1032.7
28.01	11.06	5.91	1139.7	1032.7
28.02	11.06	5.91	1139.2	1032.7
28.03	11.05	5.91	1139.4	1032.8
28.04	11.07	5.91	1139.7	1032.7
28.05	11.05	5.91	1139.2	1032.7
28.06	11.06	5.91	1140.4	1032.6
28.07	11.05	5.91	1139.1	1032.4
28.08	11.06	5.91	1139.7	1032.6
28.09	11.06	5.91	1139.4	1032.4
28.1	11.06	5.91	1139.2	1032.2
28.11	11.05	5.91	1138.9	1032.5
28.12	11.06	5.91	1139.3	1032.3
28.13	11.06	5.91	1139.3	1032.5
28.14	11.05	5.9	1139.0	1032.6
28.15	11.05	5.9	1139.2	1032.4
28.16	11.07	5.91	1138.5	1032.5
28.17	11.05	5.9	1138.9	1032.5
28.18	11.07	5.91	1138.8	1032.4
28.19	11.04	5.9	1138.7	1032.5
28.2	11.06	5.91	1138.6	1032.4
28.21	11.06	5.9	1139.1	1032.3
28.22	11.07	5.9	1139.2	1032.3
28.23	11.07	5.9	1139.0	1032.1
28.24	11.06	5.9	1139.3	1032.5
28.25	11.06	5.9	1138.7	1032.3
28.26	11.06	5.9	1138.1	1032.4
28.27	11.06	5.9	1139.1	1032.1
28.28	11.07	5.9	1138.4	1032.2
28.29	11.06	5.9	1139.6	1032.1
28.3	11.06	5.9	1138.9	1032.2
28.31	11.06	5.9	1138.8	1032.0
28.32	11.06	5.9	1138.7	1032.2
28.33	11.07	5.9	1138.8	1032.1
28.34	11.06	5.9	1138.4	1032.4
28.35	11.06	5.9	1138.4	1032.3
28.36	11.06	5.9	1138.7	1032.1
28.37	11.06	5.9	1138.7	1032.2
28.38	11.06	5.9	1138.1	1032.0
28.39	11.07	5.9	1138.3	1032.0
28.4	11.05	5.89	1138.4	1032.2
28.41	11.06	5.9	1138.7	1032.0
28.42	11.05	5.89	1138.5	1032.2
28.43	11.06	5.9	1139.3	1032.3
28.44	11.05	5.89	1138.0	1032.2
28.45	11.05	5.9	1138.8	1032.0
28.46	11.06	5.9	1138.2	1032.1
28.47	11.06	5.89	1138.6	1031.9
28.48	11.05	5.89	1138.2	1032.3
28.49	11.06	5.9	1138.3	1032.0
28.5	11.06	5.89	1138.1	1032.0
28.51	11.05	5.89	1138.4	1031.7
28.52	11.05	5.89	1138.3	1031.9
28.53	11.05	5.89	1137.9	1032.0
28.54	11.06	5.89	1138.1	1031.9
28.55	11.06	5.89	1138.4	1031.8
28.56	11.05	5.88	1137.7	1031.9
28.57	11.06	5.89	1137.9	1031.6
28.58	11.05	5.89	1137.9	1031.8
28.59	11.06	5.89	1138.5	1031.7
28.6	11.07	5.89	1137.8	1031.9
28.61	11.06	5.89	1137.7	1031.6
28.62	11.07	5.89	1137.7	1031.8
28.63	11.06	5.89	1137.9	1031.8
28.64	11.05	5.89	1138.1	1031.8
28.65	11.05	5.88	1138.3	1031.8
28.66	11.05	5.88	1137.7	1031.9
28.67	11.06	5.89	1137.5	1031.8
28.68	11.06	5.89	1137.6	1031.8
28.69	11.06	5.89	1138.0	1032.2
28.7	11.08	5.89	1137.8	1031.6
28.71	11.05	5.88	1137.8	1031.8
28.72	11.06	5.88	1137.4	1032.0
28.73	11.05	5.88	1137.7	1031.9
28.74	11.05	5.88	1137.3	1031.7
28.75	11.06	5.89	1137.9	1031.7
28.76	11.07	5.88	1137.3	1032.0
28.77	11.06	5.88	1137.8	1031.9
28.78	11.06	5.88	1137.1	1031.8
28.79	11.05	5.88	1137.8	1031.8
28.8	11.06	5.88	1137.4	1031.7
28.81	11.06	5.88	1137.5	1031.7
28.82	11.08	5.89	1137.9	1031.7
28.83	11.06	5.88	1137.6	1031.7
28.84	11.06	5.88	1137.3	1031.8
28.85	11.05	5.88	1137.6	1031.7
28.86	11.06	5.88	1137.3	1031.7
28.87	11.05	5.88	1137.8	1031.3
28.88	11.07	5.88	1137.4	1031.5
28.89	11.04	5.87	1137.7	1031.6
28.9	11.06	5.88	1136.8	1031.4
28.91	11.06	5.87	1137.1	1031.4
28.92	11.05	5.87	1137.0	1031.5
28.93	11.05	5.88	1136.8	1031.2
28.94	11.06	5.88	1136.9	1031.5
28.95	11.06	5.88	1137.1	1031.3
28.96	11.05	5.88	1137.1	1031.3
28.97	11.06	5.88	1138.0	1031.2
28.98	11.05	5.88	1137.2	1031.3
28.99	11.06	5.88	1137.4	1031.2
29.0	11.06	5.88	1137.0	1031.4
29.01	11.07	5.87	1137.5	1031.4
29.02	11.05	5.87	1137.4	1031.3
29.03	11.07	5.88	1137.0	1031.2
29.04	11.05	5.87	1136.8	1031.1
29.05	11.06	5.87	1137.2	1031.4
29.06	11.05	5.87	1137.0	1031.3
29.07	11.06	5.87	1137.1	1031.4
29.08	11.05	5.87	1136.6	1031.3
29.09	11.07	5.87	1136.9	1031.2
29.1	11.05	5.87	1136.9	1031.1
29.11	11.06	5.87	1136.7	1031.0
29.12	11.06	5.87	1136.8	1031.4
29.13	11.07	5.87	1136.7	1031.0
29.14	11.07	5.87	1136.6	1031.1
29.15	11.06	5.87	1136.7	1031.2
29.16	11.05	5.87	1136.4	1030.8
29.17	11.05	5.87	1136.4	1031.0
29.18	11.06	5.87	1136.3	1031.1
29.19	11.06	5.87	1136.4	1030.8
29.2	11.06	5.87	1136.3	1031.0
29.21	11.06	5.87	1136.6	1031.0
29.22	11.06	5.87	1136.2	1030.9
29.23	11.05	5.86	1136.7	1031.0
29.24	11.05	5.86	1136.2	1030.9
29.25	11.06	5.87	1137.1	1031.1
29.26	11.06	5.87	1136.5	1031.0
29.27	11.07	5.87	1136.3	1031.0
29.28	11.05	5.86	1136.5	1031.1
29.29	11.06	5.86	1136.6	1031.0
29.3	11.06	5.86	1136.7	1031.1
29.31	11.05	5.86	1136.5	1030.9
29.32	11.06	5.86	1136.5	1030.9
29.33	11.06	5.86	1136.7	1030.9
29.34	11.07	5.87	1136.5	1031.1
29.35	11.05	5.86	1136.5	1030.7
29.36	11.06	5.86	1135.8	1031.1
29.37	11.05	5.86	1136.6	1030.8
29.38	11.06	5.86	1136.0	1030.7
29.39	11.05	5.86	1136.2	1030.8
29.4	11.07	5.86	1135.9	1030.8
29.41	11.06	5.86	1136.3	1030.8
29.42	11.06	5.86	1136.1	1030.6
29.43	11.06	5.86	1136.0	1030.6
29.44	11.06	5.86	1135.9	1031.0
29.45	11.06	5.86	1136.0	1030.6
29.46	11.06	5.86	1135.9	1030.6
29.47	11.06	5.86	1136.0	1030.5
29.48	11.07	5.86	1135.7	1030.7
29.49	11.05	5.86	1135.6	1030.6
29.5	11.07	5.86	1135.6	1030.5
29.51	11.05	5.86	1135.7	1030.5
29.52	11.06	5.85	1135.7	1030.6
29.53	11.05	5.85	1136.2	1030.6
29.54	11.06	5.85	1134.9	1030.8
29.55	11.06	5.86	1135.6	1030.6
29.56	11.06	5.86	1135.9	1030.8
29.57	11.05	5.86	1136.2	1030.7
29.58	11.06	5.86	1135.9	1030.9
29.59	11.06	5.85	1135.5	1030.6
29.6	11.06	5.85	1135.8	1030.6
29.61	11.05	5.85	1135.8	1030.4
29.62	11.06	5.85	1135.2	1030.6
29.63	11.06	5.85	1135.2	1030.2
29.64	11.06	5.85	1135.6	1030.5
29.65	11.05	5.85	1136.0	1030.3
29.66	11.06	5.85	1135.2	1030.5
29.67	11.05	5.85	1136.0	1030.5
29.68	11.05	5.85	1135.4	1030.6
29.69	11.06	5.85	1135.7	1030.4
29.7	11.06	5.85	1135.2	1030.4
29.71	11.06	5.85	1135.4	1030.1
29.72	11.04	5.85	1135.2	1030.4
29.73	11.07	5.85	1135.4	1030.3
29.74	11.05	5.85	1135.2	1030.5
29.75	11.06	5.85	1135.7	1030.4
29.76	11.07	5.85	1135.3	1030.4
29.77	11.06	5.85	1135.2	1030.4
29.78	11.07	5.85	1135.3	1030.5
29.79	11.05	5.84	1135.3	1030.2
29.8	11.06	5.85	1135.2	1030.4
29.81	11.06	5.85	1134.9	1030.4
29.82	11.06	5.85	1134.5	1030.2
29.83	11.07	5.85	1135.1	1030.4
29.84	11.06	5.84	1135.2	1030.3
29.85	11.06	5.85	1135.2	1030.3
29.86	11.05	5.84	1134.4	1030.6
29.87	11.06	5.84	1135.0	1030.3
29.88	11.05	5.84	1134.4	1030.1
29.89	11.07	5.85	1134.5	1030.3
29.9	11.06	5.85	1134.7	1030.2
29.91	11.07	5.84	1134.9	1030.3
29.92	11.06	5.84	1134.8	1030.4
29.93	11.06	5.84	1134.9	1030.3
29.94	11.05	5.84	1134.9	1030.2
29.95	11.05	5.84	1134.4	1030.0
29.96	11.06	5.85	1134.4	1030.1
29.97	11.06	5.84	1134.9	1030.3
29.98	11.06	5.84	1134.4	1030.1
29.99	11.06	5.84	1134.3	1029.9
30.0	11.05	5.84	1134.2	1030.0
30.01	11.05	5.84	1134.8	1030.3
30.02	11.06	5.84	1134.4	1030.0
30.03	11.05	5.84	1134.8	1030.2
30.04	11.08	5.85	1134.3	1030.1
30.05	11.06	5.84	1134.5	1030.0
30.06	11.06	5.84	1134.2	1030.0
30.07	11.05	5.84	1134.7	1030.0
30.08	11.06	5.84	1134.0	1030.0
30.09	11.06	5.84	1134.4	1030.2
30.1	11.07	5.84	1134.5	1030.1
30.11	11.06	5.84	1134.1	1029.9
30.12	11.06	5.84	1133.4	1030.0
30.13	11.05	5.83	1133.7	1029.7
30.14	11.06	5.83	1134.0	1030.0
30.15	11.05	5.84	1133.9	1029.8
30.16	11.06	5.83	1133.9	1030.1
30.17	11.06	5.84	1133.9	1029.6
30.18	11.06	5.84	1134.1	1029.9
30.19	11.05	5.84	1134.7	1029.8
30.2	11.06	5.83	1134.1	1030.0
30.21	11.05	5.83	1134.2	1029.8
30.22	11.06	5.83	1133.8	1029.8
30.23	11.05	5.83	1135.3	1029.8
30.24	11.06	5.83	1133.9	1029.7
30.25	11.06	5.83	1134.2	1029.6
30.26	11.06	5.83	1133.8	1029.9
30.27	11.06	5.83	1134.2	1029.6
30.28	11.06	5.83	1133.9	1029.7
30.29	11.04	5.83	1134.6	1029.8
30.3	11.07	5.83	1133.6	1029.7
30.31	11.06	5.83	1134.2	1029.5
30.32	11.06	5.83	1133.6	1029.7
30.33	11.06	5.83	1133.7	1029.3
30.34	11.06	5.83	1133.3	1029.7
30.35	11.06	5.83	1133.4	1029.7
30.36	11.05	5.83	1133.4	1029.7
30.37	11.06	5.83	1133.6	1029.7
30.38	11.06	5.83	1133.1	1029.8
30.39	11.07	5.83	1133.5	1029.4
30.4	11.06	5.83	1133.0	1029.5
30.41	11.06	5.83	1133.4	1029.6
30.42	11.05	5.83	1133.3	1029.5
30.43	11.06	5.83	1133.5	1029.5
30.44	11.05	5.83	1133.0	1029.5
30.45	11.06	5.83	1133.1	1029.6
30.46	11.05	5.83	1133.3	1029.5
30.47	11.05	5.83	1133.0	1029.4
30.48	11.06	5.83	1133.1	1029.3
30.49	11.05	5.82	1133.0	1029.2
30.5	11.06	5.83	1133.0	1029.6
30.51	11.06	5.83	1133.3	1029.2
30.52	11.05	5.82	1133.1	1029.7
30.53	11.07	5.83	1133.2	1029.5
30.54	11.05	5.82	1132.9	1029.5
30.55	11.06	5.83	1133.5	1029.3
30.56	11.06	5.82	1133.3	1029.5
30.57	11.06	5.82	1133.1	1029.3
30.58	11.06	5.82	1132.7	1029.2
30.59	11.06	5.82	1132.8	1029.3
30.6	11.06	5.82	1132.5	1029.4
30.61	11.06	5.82	1133.2	1029.1
30.62	11.06	5.83	1133.2	1029.2
30.63	11.05	5.82	1133.0	1029.0
30.64	11.06	5.82	1133.2	1029.3
30.65	11.06	5.82	1132.7	1029.5
30.66	11.06	5.82	1132.3	1029.2
30.67	11.06	5.82	1132.3	1029.4
30.68	11.06	5.82	1132.5	1029.4
30.69	11.05	5.82	1133.1	1029.4
30.7	11.05	5.82	1132.6	1029.1
30.71	11.06	5.82	1133.2	1029.2
30.72	11.06	5.82	1132.5	1029.2
30.73	11.05	5.82	1133.0	1029.0
30.74	11.05	5.82	1132.7	1029.3
30.75	11.05	5.81	1133.2	1029.0
30.76	11.06	5.82	1132.9	1029.0
30.77	11.06	5.82	1132.5	1029.0
30.78	11.06	5.82	1132.9	1029.0
30.79	11.05	5.82	1132.7	1028.7
30.8	11.06	5.81	1132.5	1029.2
30.81	11.05	5.81	1132.7	1029.0
30.82	11.06	5.81	1132.3	1028.9
30.83	11.05	5.81	1132.4	1029.0
30.84	11.07	5.82	1131.9	1028.8
30.85	11.06	5.82	1131.9	1028.8
30.86	11.06	5.81	1131.9	1029.0
30.87	11.05	5.81	1132.3	1029.1
30.88	11.07	5.82	1132.1	1028.7
30.89	11.06	5.82	1132.4	1029.0
30.9	11.07	5.82	1131.8	1028.9
30.91	11.06	5.81	1132.1	1028.8
30.92	11.06	5.81	1132.3	1028.9
30.93	11.05	5.81	1132.5	1029.2
30.94	11.06	5.81	1131.8	1028.9
30.95	11.06	5.81	1131.7	1028.9
30.96	11.07	5.81	1131.8	1028.9
30.97	11.06	5.81	1132.2	1028.8
30.98	11.07	5.81	1131.6	1029.0
30.99	11.05	5.81	1131.3	1028.8
31.0	11.06	5.81	1131.8	1029.1
31.01	11.05	5.81	1131.8	1028.9
31.02	11.06	5.81	1131.6	1028.9
31.03	11.06	5.81	1132.0	1028.7
31.04	11.06	5.81	1131.1	1028.6
31.05	11.06	5.81	1131.7	1028.7
31.06	11.06	5.81	1131.4	1028.6
31.07	11.06	5.81	1131.5	1028.6
31.08	11.06	5.81	1131.0	1028.8
31.09	11.05	5.81	1131.5	1028.8
31.1	11.06	5.81	1131.5	1028.7
31.11	11.06	5.81	1131.3	1028.7
31.12	11.05	5.81	1131.0	1028.7
31.13	11.06	5.81	1131.1	1028.7
31.14	11.06	5.81	1131.3	1028.6
31.15	11.06	5.81	1131.3	1028.7
31.16	11.06	5.81	1131.2	1028.5
31.17	11.05	5.8	1131.1	1028.3
31.18	11.05	5.81	1131.0	1028.3
31.19	11.06	5.81	1131.4	1028.3
31.2	11.05	5.8	1131.0	1028.6
31.21	11.06	5.8	1131.4	1028.4
31.22	11.05	5.8	1130.7	1028.7
31.23	11.06	5.8	1131.4	1028.4
31.24	11.05	5.8	1130.9	1028.6
31.25	11.05	5.8	1131.2	1028.6
31.26	11.05	5.8	1130.9	1028.3
31.27	11.05	5.8	1131.5	1028.6
31.28	11.07	5.81	1130.7	1028.4
31.29	11.07	5.8	1130.6	1028.4
31.3	11.06	5.81	1130.3	1028.4
31.31	11.06	5.8	1130.4	1028.4
31.32	11.05	5.8	1130.9	1028.4
31.33	11.06	5.8	1130.7	1028.5
31.34	11.06	5.8	1130.7	1028.6
31.35	11.07	5.8	1130.5	1028.4
31.36	11.07	5.8	1130.2	1028.4
31.37	11.07	5.8	1130.5	1028.1
31.38	11.05	5.79	1130.7	1028.2
31.39	11.06	5.8	1130.7	1028.1
31.4	11.05	5.8	1130.3	1028.2
31.41	11.05	5.79	1130.7	1027.9
31.42	11.05	5.8	1130.3	1028.1
31.43	11.06	5.8	1130.5	1028.0
31.44	11.07	5.8	1130.4	1028.0
31.45	11.05	5.8	1130.3	1028.1
31.46	11.05	5.8	1130.5	1028.0
31.47	11.06	5.8	1131.0	1028.2
31.48	11.05	5.79	1130.5	1027.8
31.49	11.06	5.79	1130.4	1027.8
31.5	11.06	5.8	1130.2	1028.0
31.51	11.05	5.8	1130.6	1027.8
31.52	11.06	5.8	1130.0	1028.0
31.53	11.06	5.8	1130.6	1027.8
31.54	11.06	5.8	1129.6	1027.8
31.55	11.05	5.79	1130.3	1027.8
31.56	11.05	5.79	1130.1	1027.8
31.57	11.05	5.79	1130.1	1028.0
31.58	11.06	5.79	1129.5	1027.8
31.59	11.06	5.8	1129.9	1027.8
31.6	11.07	5.8	1130.0	1028.0
31.61	11.06	5.8	1129.8	1027.8
31.62	11.05	5.79	1129.8	1028.0
31.63	11.06	5.79	1129.5	1027.8
31.64	11.06	5.79	1130.2	1027.9
31.65	11.05	5.79	1130.0	1027.8
31.66	11.06	5.79	1130.0	1028.0
31.67	11.06	5.79	1129.7	1027.9
31.68	11.06	5.79	1129.6	1028.0
31.69	11.05	5.79	1129.6	1027.8
31.7	11.07	5.79	1129.3	1027.8
31.71	11.06	5.79	1130.0	1027.7
31.72	11.06	5.79	1129.0	1027.8
31.73	11.04	5.78	1129.5	1027.8
31.74	11.05	5.79	1128.9	1027.8
31.75	11.05	5.79	1129.6	1027.7
31.76	11.05	5.79	1129.8	1027.7
31.77	11.06	5.79	1129.9	1027.5
31.78	11.07	5.8	1129.5	1027.7
31.79	11.05	5.78	1129.8	1027.3
31.8	11.06	5.79	1129.8	1027.8
31.81	11.05	5.78	1129.2	1027.6
31.82	11.06	5.79	1129.1	1027.5
31.83	11.06	5.79	1129.4	1027.4
31.84	11.05	5.79	1128.4	1027.5
31.85	11.07	5.79	1128.8	1027.4
31.86	11.05	5.79	1128.2	1027.5
31.87	11.06	5.79	1129.2	1027.6
31.88	11.06	5.79	1128.6	1027.5
31.89	11.06	5.78	1128.9	1027.5
31.9	11.06	5.79	1128.3	1027.6
31.91	11.06	5.79	1128.8	1027.4
31.92	11.05	5.78	1128.7	1027.4
31.93	11.06	5.79	1128.6	1027.4
31.94	11.06	5.79	1128.5	1027.3
31.95	11.07	5.79	1128.2	1027.4
31.96	11.06	5.79	1128.9	1027.3
31.97	11.07	5.79	1128.8	1027.3
31.98	11.05	5.79	1128.2	1027.4
31.99	11.06	5.78	1128.4	1027.3
32.0	11.05	5.78	1128.4	1027.3
32.01	11.05	5.78	1128.4	1027.1
32.02	11.04	5.78	1128.6	1027.2
32.03	11.07	5.78	1128.6	1027.1
32.04	11.06	5.78	1128.4	1027.2
32.05	11.06	5.78	1129.1	1027.3
32.06	11.07	5.79	1128.7	1027.4
32.07	11.06	5.78	1129.0	1027.4
32.08	11.06	5.78	1128.2	1027.2
32.09	11.06	5.78	1128.5	1027.1
32.1	11.05	5.78	1128.5	1027.1
32.11	11.06	5.78	1128.7	1027.1
32.12	11.07	5.78	1128.5	1027.3
32.13	11.05	5.78	1128.0	1027.0
32.14	11.07	5.78	1127.9	1027.2
32.15	11.06	5.78	1128.4	1027.2
32.16	11.07	5.78	1127.9	1027.2
32.17	11.06	5.78	1128.4	1027.0
32.18	11.06	5.78	1127.5	1027.0
32.19	11.06	5.78	1128.2	1026.9
32.2	11.06	5.78	1127.8	1026.9
32.21	11.06	5.78	1127.9	1026.9
32.22	11.06	5.78	1127.3	1026.8
32.23	11.04	5.77	1127.9	1026.9
32.24	11.07	5.78	1127.9	1027.0
32.25	11.06	5.78	1128.0	1026.8
32.26	11.05	5.77	1127.6	1026.8
32.27	11.06	5.78	1128.0	1027.0
32.28	11.06	5.78	1127.9	1026.8
32.29	11.04	5.78	1128.4	1026.6
32.3	11.07	5.78	1127.9	1026.9
32.31	11.04	5.77	1127.9	1027.0
32.32	11.07	5.78	1127.7	1026.6
32.33	11.06	5.78	1128.2	1026.8
32.34	11.05	5.77	1127.5	1027.0
32.35	11.05	5.77	1127.8	1026.8
32.36	11.06	5.77	1127.4	1026.8
32.37	11.05	5.78	1128.1	1026.8
32.38	11.06	5.77	1127.5	1026.6
32.39	11.06	5.78	1127.5	1027.1
32.4	11.07	5.78	1127.7	1026.9
32.41	11.05	5.77	1127.1	1026.7
32.42	11.06	5.77	1127.1	1026.8
32.43	11.05	5.77	1127.4	1027.0
32.44	11.06	5.77	1127.4	1026.8
32.45	11.06	5.77	1127.5	1026.6
32.46	11.07	5.77	1127.2	1026.6
32.47	11.05	5.77	1127.3	1026.7
32.48	11.07	5.78	1127.0	1026.8
32.49	11.05	5.77	1127.5	1026.7
32.5	11.07	5.77	1126.5	1026.5
32.51	11.06	5.77	1126.8	1026.6
32.52	11.06	5.77	1126.7	1026.6
32.53	11.06	5.77	1127.5	1026.6
32.54	11.05	5.77	1127.2	1026.7
32.55	11.07	5.77	1127.2	1026.6
32.56	11.06	5.77	1127.4	1026.6
32.57	11.06	5.77	1127.0	1026.6
32.58	11.05	5.77	1126.7	1026.5
32.59	11.07	5.77	1127.0	1026.7
32.6	11.06	5.77	1127.0	1026.8
32.61	11.06	5.77	1127.5	1026.6
32.62	11.05	5.77	1127.0	1026.7
32.63	11.06	5.77	1127.0	1026.9
32.64	11.06	5.77	1126.9	1026.6
32.65	11.06	5.77	1127.2	1026.5
32.66	11.06	5.77	1126.7	1026.4
32.67	11.06	5.76	1127.5	1026.4
32.68	11.06	5.77	1126.9	1026.0
32.69	11.07	5.77	1127.1	1026.4
32.7	11.04	5.76	1126.6	1026.4
32.71	11.07	5.77	1127.1	1026.3
32.72	11.06	5.77	1126.3	1026.4
32.73	11.06	5.76	1126.7	1026.3
32.74	11.06	5.77	1126.9	1026.3
32.75	11.06	5.77	1126.8	1026.3
32.76	11.05	5.77	1127.1	1026.5
32.77	11.07	5.77	1126.5	1026.3
32.78	11.05	5.76	1126.6	1026.4
32.79	11.06	5.77	1126.6	1026.5
32.8	11.05	5.76	1126.4	1026.3
32.81	11.07	5.77	1126.4	1026.5
32.82	11.05	5.76	1126.2	1026.5
32.83	11.06	5.76	1126.2	1026.3
32.84	11.06	5.77	1126.0	1026.3
32.85	11.06	5.76	1126.6	1026.4
32.86	11.07	5.76	1125.7	1026.1
32.87	11.06	5.76	1126.2	1026.4
32.88	11.07	5.77	1126.0	1026.4
32.89	11.06	5.76	1126.2	1026.2
32.9	11.06	5.76	1126.0	1026.4
32.91	11.06	5.76	1126.0	1025.9
32.92	11.07	5.76	1126.2	1026.0
32.93	11.06	5.76	1126.2	1026.0
32.94	11.06	5.76	1125.9	1026.3
32.95	11.04	5.76	1125.1	1025.8
32.96	11.07	5.76	1125.6	1025.9
32.97	11.06	5.76	1125.8	1026.1
32.98	11.06	5.76	1125.4	1026.2
32.99	11.06	5.76	1125.5	1026.2
33.0	11.06	5.76	1125.6	1026.1
33.01	11.05	5.76	1126.1	1026.2
33.02	11.06	5.76	1125.8	1026.1
33.03	11.05	5.76	1125.4	1026.0
33.04	11.06	5.76	1124.9	1026.0
33.05	11.05	5.76	1125.8	1026.0
33.06	11.05	5.76	1124.9	1026.1
33.07	11.06	5.76	1125.5	1026.2
33.08	11.06	5.76	1124.4	1026.1
33.09	11.05	5.75	1125.4	1026.0
33.1	11.07	5.76	1125.8	1025.9
33.11	11.05	5.75	1125.2	1026.1
33.12	11.06	5.76	1125.4	1026.2
33.13	11.06	5.76	1125.0	1025.9
33.14	11.06	5.75	1125.2	1026.0
33.15	11.06	5.76	1125.0	1025.8
33.16	11.06	5.75	1124.9	1025.7
33.17	11.06	5.75	1125.1	1025.9
33.18	11.06	5.75	1124.7	1026.1
33.19	11.06	5.75	1125.4	1025.7
33.2	11.06	5.75	1125.3	1025.8
33.21	11.06	5.76	1125.2	1025.7
33.22	11.06	5.75	1124.4	1025.8
33.23	11.07	5.76	1125.5	1025.8
33.24	11.05	5.75	1125.4	1025.7
33.25	11.06	5.75	1125.7	1025.6
33.26	11.06	5.75	1125.0	1025.7
33.27	11.07	5.76	1124.9	1025.8
33.28	11.06	5.76	1124.8	1025.8
33.29	11.06	5.75	1124.8	1025.6
33.3	11.05	5.75	1124.8	1025.9
33.31	11.07	5.75	1124.4	1025.8
33.32	11.05	5.75	1124.8	1025.6
33.33	11.06	5.76	1125.0	1025.7
33.34	11.06	5.75	1124.6	1025.8
33.35	11.07	5.75	1124.8	1025.8
33.36	11.05	5.75	1124.2	1025.7
33.37	11.07	5.75	1124.8	1025.6
33.38	11.05	5.75	1124.2	1025.6
33.39	11.08	5.75	1124.9	1025.4
33.4	11.05	5.75	1124.0	1025.7
33.41	11.07	5.75	1124.5	1025.5
33.42	11.05	5.75	1124.1	1025.6
33.43	11.07	5.75	1124.5	1025.6
33.44	11.05	5.75	1124.0	1025.5
33.45	11.06	5.75	1124.4	1025.6
33.46	11.06	5.75	1124.2	1025.5
33.47	11.05	5.75	1124.5	1025.5
33.48	11.05	5.75	1124.2	1025.3
33.49	11.06	5.75	1123.9	1025.5
33.5	11.06	5.75	1124.2	1025.6
33.51	11.06	5.75	1124.1	1025.3
33.52	11.06	5.75	1123.9	1025.4
33.53	11.06	5.75	1124.2	1025.4
33.54	11.06	5.75	1123.7	1025.4
33.55	11.04	5.74	1124.2	1025.6
33.56	11.06	5.74	1123.6	1025.3
33.57	11.07	5.75	1124.0	1025.2
33.58	11.05	5.74	1123.4	1025.7
33.59	11.06	5.75	1123.6	1025.2
33.6	11.05	5.74	1123.5	1025.3
33.61	11.06	5.74	1123.6	1025.6
33.62	11.06	5.74	1123.6	1025.4
33.63	11.06	5.74	1124.0	1025.2
33.64	11.06	5.75	1123.9	1025.4
33.65	11.07	5.75	1123.7	1025.0
33.66	11.06	5.74	1123.8	1025.2
33.67	11.06	5.75	1123.9	1025.2
33.68	11.05	5.74	1123.8	1025.3
33.69	11.06	5.75	1124.0	1025.0
33.7	11.07	5.74	1123.8	1025.3
33.71	11.04	5.74	1124.0	1025.2
33.72	11.06	5.74	1123.3	1025.1
33.73	11.06	5.74	1124.1	1025.2
33.74	11.07	5.74	1123.6	1025.1
33.75	11.06	5.74	1123.8	1025.0
33.76	11.05	5.74	1123.2	1025.2
33.77	11.05	5.74	1123.6	1025.2
33.78	11.06	5.74	1123.5	1025.3
33.79	11.05	5.74	1123.5	1025.0
33.8	11.05	5.74	1123.2	1025.0
33.81	11.05	5.74	1123.5	1025.1
33.82	11.06	5.74	1123.9	1025.1
33.83	11.04	5.74	1123.7	1025.0
33.84	11.07	5.74	1123.5	1025.1
33.85	11.06	5.74	1123.3	1025.1
33.86	11.06	5.74	1123.7	1025.0
33.87	11.05	5.74	1123.7	1024.9
33.88	11.05	5.74	1123.7	1024.9
33.89	11.05	5.74	1123.8	1025.0
33.9	11.06	5.74	1123.2	1024.8
33.91	11.06	5.74	1123.9	1024.7
33.92	11.06	5.74	1123.4	1024.9
33.93	11.06	5.74	1123.6	1024.7
33.94	11.06	5.74	1122.5	1024.7
33.95	11.06	5.74	1123.2	1024.7
33.96	11.06	5.74	1122.7	1024.8
33.97	11.06	5.73	1122.9	1024.8
33.98	11.06	5.74	1122.2	1024.6
33.99	11.06	5.74	1122.8	1024.6
34.0	11.06	5.74	1123.0	1024.6
34.01	11.06	5.74	1122.8	1025.0
34.02	11.05	5.73	1122.8	1024.7
34.03	11.07	5.74	1122.4	1024.7
34.04	11.06	5.74	1123.0	1024.7
34.05	11.06	5.74	1123.2	1024.6
34.06	11.06	5.74	1122.1	1024.4
34.07	11.06	5.73	1121.7	1024.6
34.08	11.06	5.74	1121.4	1024.5
34.09	11.06	5.73	1122.4	1024.4
34.1	11.06	5.74	1121.9	1024.4
34.11	11.06	5.74	1121.8	1024.5
34.12	11.06	5.74	1121.3	1024.7
34.13	11.06	5.73	1122.1	1024.3
34.14	11.05	5.73	1122.4	1024.5
34.15	11.06	5.73	1122.0	1024.4
34.16	11.06	5.74	1121.1	1024.3
34.17	11.07	5.73	1121.4	1024.4
34.18	11.06	5.74	1121.7	1024.2
34.19	11.07	5.74	1121.4	1024.5
34.2	11.06	5.73	1121.8	1024.2
34.21	11.06	5.73	1121.4	1024.3
34.22	11.05	5.73	1121.6	1024.3
34.23	11.06	5.73	1122.1	1024.3
34.24	11.06	5.74	1121.6	1024.2
34.25	11.06	5.73	1121.9	1024.2
34.26	11.07	5.74	1121.4	1024.3
34.27	11.06	5.73	1121.7	1024.4
34.28	11.05	5.73	1121.8	1024.2
34.29	11.05	5.73	1121.9	1024.1
34.3	11.05	5.73	1121.8	1023.9
34.31	11.06	5.73	1121.6	1024.0
34.32	11.06	5.73	1121.6	1023.9
34.33	11.05	5.73	1121.2	1024.2
34.34	11.06	5.73	1121.5	1024.0
34.35	11.06	5.73	1121.5	1024.2
34.36	11.07	5.73	1121.3	1024.1
34.37	11.06	5.73	1121.8	1024.0
34.38	11.05	5.72	1121.5	1023.9
34.39	11.06	5.73	1121.4	1024.1
34.4	11.07	5.73	1121.2	1023.9
34.41	11.06	5.73	1121.5	1023.9
34.42	11.07	5.73	1121.2	1024.1
34.43	11.07	5.73	1121.3	1024.0
34.44	11.06	5.73	1120.9	1024.2
34.45	11.05	5.72	1122.0	1024.0
34.46	11.06	5.72	1121.9	1024.0
34.47	11.06	5.73	1121.5	1023.9
34.48	11.07	5.73	1120.9	1023.8
34.49	11.06	5.73	1121.4	1023.9
34.5	11.07	5.73	1121.5	1023.8
34.51	11.05	5.72	1121.4	1023.7
34.52	11.06	5.73	1120.7	1023.9
34.53	11.05	5.72	1121.1	1023.8
34.54	11.06	5.73	1121.4	1023.8
34.55	11.06	5.73	1121.7	1023.9
34.56	11.06	5.72	1121.1	1023.7
34.57	11.05	5.72	1121.7	1023.9
34.58	11.06	5.73	1120.5	1023.9
34.59	11.06	5.72	1121.4	1023.9
34.6	11.06	5.72	1120.8	1023.7
34.61	11.06	5.73	1120.7	1023.7
34.62	11.06	5.72	1120.6	1023.6
34.63	11.06	5.72	1120.7	1023.4
34.64	11.05	5.72	1121.2	1023.7
34.65	11.05	5.72	1121.2	1023.5
34.66	11.06	5.72	1121.2	1023.4
34.67	11.07	5.73	1121.0	1023.6
34.68	11.06	5.72	1120.9	1023.6
34.69	11.06	5.72	1121.0	1023.5
34.7	11.07	5.72	1120.9	1023.6
34.71	11.06	5.72	1120.6	1023.5
34.72	11.04	5.72	1120.6	1023.4
34.73	11.06	5.72	1120.4	1023.4
34.74	11.05	5.72	1119.8	1023.5
34.75	11.07	5.72	1120.9	1023.5
34.76	11.06	5.72	1119.8	1023.5
34.77	11.05	5.72	1120.5	1023.5
34.78	11.05	5.72	1120.3	1023.4
34.79	11.07	5.72	1120.9	1023.3
34.8	11.04	5.72	1120.0	1023.8
34.81	11.06	5.72	1120.2	1023.5
34.82	11.06	5.72	1120.0	1023.7
34.83	11.06	5.72	1120.1	1023.5
34.84	11.06	5.72	1120.3	1023.5
34.85	11.06	5.72	1120.0	1023.4
34.86	11.05	5.72	1119.7	1023.5
34.87	11.06	5.72	1120.0	1023.4
34.88	11.05	5.72	1119.7	1023.4
34.89	11.06	5.72	1119.6	1023.4
34.9	11.06	5.72	1119.9	1023.4
34.91	11.06	5.72	1120.1	1023.2
34.92	11.06	5.72	1120.0	1023.4
34.93	11.06	5.72	1120.1	1023.4
34.94	11.05	5.72	1119.4	1023.2
34.95	11.06	5.72	1120.4	1023.2
34.96	11.06	5.72	1119.9	1023.1
34.97	11.05	5.71	1119.6	1023.2
34.98	11.05	5.72	1119.4	1023.2
34.99	11.06	5.72	1119.5	1023.2
35.0	11.06	5.71	1119.4	1023.3
35.01	11.06	5.72	1119.6	1023.3
35.02	11.06	5.72	1119.1	1023.2
35.03	11.06	5.71	1118.9	1023.1
35.04	11.07	5.72	1119.0	1023.2
35.05	11.05	5.71	1119.3	1023.2
35.06	11.06	5.71	1119.2	1023.3
35.07	11.06	5.72	1119.0	1023.4
35.08	11.06	5.71	1118.8	1023.2
35.09	11.06	5.72	1119.3	1023.3
35.1	11.06	5.71	1119.0	1023.4
35.11	11.06	5.72	1119.4	1023.2
35.12	11.06	5.71	1119.0	1023.0
35.13	11.06	5.72	1118.8	1023.2
35.14	11.07	5.71	1119.3	1023.3
35.15	11.05	5.71	1118.9	1023.1
35.16	11.06	5.71	1119.0	1023.1
35.17	11.06	5.72	1119.0	1023.0
35.18	11.08	5.72	1119.1	1023.1
35.19	11.07	5.72	1118.8	1023.1
35.2	11.06	5.71	1118.7	1023.0
35.21	11.05	5.71	1119.1	1023.0
35.22	11.07	5.72	1118.9	1022.8
35.23	11.05	5.71	1119.3	1023.0
35.24	11.05	5.71	1119.2	1023.0
35.25	11.06	5.71	1119.2	1022.7
35.26	11.06	5.71	1118.4	1022.8
35.27	11.05	5.71	1118.7	1022.8
35.28	11.06	5.71	1118.7	1023.0
35.29	11.06	5.71	1119.0	1022.8
35.3	11.05	5.71	1118.9	1022.7
35.31	11.05	5.71	1118.6	1022.8
35.32	11.05	5.71	1119.2	1022.5
35.33	11.05	5.71	1118.8	1022.7
35.34	11.06	5.71	1118.6	1022.8
35.35	11.06	5.71	1118.2	1022.6
35.36	11.06	5.71	1118.7	1022.8
35.37	11.06	5.71	1118.6	1022.8
35.38	11.06	5.71	1118.3	1022.7
35.39	11.05	5.71	1118.5	1022.5
35.4	11.05	5.71	1118.6	1022.6
35.41	11.06	5.71	1119.2	1022.4
35.42	11.05	5.71	1118.4	1022.7
35.43	11.07	5.71	1119.2	1022.5
35.44	11.06	5.71	1118.2	1022.8
35.45	11.06	5.71	1118.4	1022.6
35.46	11.07	5.71	1118.0	1022.5
35.47	11.06	5.71	1118.4	1022.4
35.48	11.06	5.7	1117.8	1022.6
35.49	11.06	5.71	1118.3	1022.5
35.5	11.05	5.7	1118.3	1022.2
35.51	11.06	5.7	1118.6	1022.4
35.52	11.05	5.7	1118.4	1022.4
35.53	11.07	5.71	1118.1	1022.5
35.54	11.06	5.71	1118.0	1022.3
35.55	11.07	5.71	1118.3	1022.5
35.56	11.05	5.7	1117.9	1022.6
35.57	11.05	5.7	1117.8	1022.3
35.58	11.05	5.71	1117.5	1022.3
35.59	11.05	5.7	1118.1	1022.3
35.6	11.06	5.7	1118.1	1022.3
35.61	11.07	5.71	1118.4	1022.3
35.62	11.05	5.71	1117.8	1022.2
35.63	11.06	5.71	1117.8	1022.5
35.64	11.06	5.7	1118.0	1022.4
35.65	11.06	5.7	1118.3	1022.4
35.66	11.06	5.71	1117.8	1022.5
35.67	11.06	5.7	1117.3	1022.2
35.68	11.05	5.7	1117.9	1022.4
35.69	11.06	5.71	1117.6	1022.3
35.7	11.07	5.71	1117.6	1022.2
35.71	11.06	5.7	1117.9	1022.3
35.72	11.06	5.7	1117.3	1022.3
35.73	11.05	5.7	1117.5	1022.4
35.74	11.07	5.71	1117.3	1022.3
35.75	11.05	5.7	1116.8	1022.1
35.76	11.06	5.7	1117.1	1022.2
35.77	11.06	5.7	1117.2	1022.1
35.78	11.06	5.7	1117.3	1022.1
35.79	11.05	5.7	1117.2	1022.1
35.8	11.07	5.71	1117.6	1022.1
35.81	11.05	5.7	1116.9	1022.1
35.82	11.07	5.71	1117.3	1021.9
35.83	11.04	5.7	1117.2	1022.2
35.84	11.06	5.7	1117.1	1022.0
35.85	11.05	5.7	1117.1	1022.2
35.86	11.06	5.7	1116.8	1022.0
35.87	11.06	5.7	1117.2	1022.0
35.88	11.07	5.7	1117.1	1022.2
35.89	11.06	5.7	1117.2	1022.2
35.9	11.06	5.7	1116.6	1022.1
35.91	11.06	5.7	1117.2	1022.1
35.92	11.06	5.7	1117.2	1022.0
35.93	11.05	5.7	1117.0	1022.1
35.94	11.06	5.7	1116.9	1022.1
35.95	11.06	5.7	1117.1	1022.0
35.96	11.06	5.7	1116.7	1022.1
35.97	11.05	5.69	1116.9	1022.1
35.98	11.05	5.69	1116.8	1022.0
35.99	11.05	5.69	1116.4	1022.0
36.0	11.06	5.7	1116.8	1022.1
36.01	11.05	5.69	1117.0	1022.1
36.02	11.05	5.69	1116.6	1021.8
36.03	11.05	5.7	1117.0	1021.8
36.04	11.06	5.7	1116.4	1021.8
36.05	11.05	5.7	1117.4	1021.8
36.06	11.06	5.7	1116.7	1022.0
36.07	11.06	5.7	1117.0	1021.9
36.08	11.06	5.7	1116.3	1021.7
36.09	11.05	5.69	1116.3	1021.8
36.1	11.06	5.7	1116.2	1021.7
36.11	11.05	5.69	1116.1	1021.8
36.12	11.06	5.7	1116.5	1021.7
36.13	11.06	5.7	1116.3	1021.7
36.14	11.06	5.7	1116.7	1021.7
36.15	11.05	5.69	1116.9	1021.6
36.16	11.04	5.69	1116.6	1021.9
36.17	11.07	5.7	1116.4	1021.6
36.18	11.06	5.69	1116.8	1021.8
36.19	11.05	5.69	1116.8	1021.8
36.2	11.06	5.69	1116.7	1021.4
36.21	11.06	5.69	1115.9	1021.4
36.22	11.06	5.69	1116.0	1021.5
36.23	11.07	5.7	1116.5	1021.5
36.24	11.05	5.69	1116.3	1021.6
36.25	11.06	5.69	1116.3	1021.5
36.26	11.05	5.69	1116.1	1021.4
36.27	11.06	5.69	1115.8	1021.5
36.28	11.07	5.69	1115.4	1021.5
36.29	11.06	5.69	1115.6	1021.4
36.3	11.06	5.69	1116.0	1021.7
36.31	11.06	5.69	1115.3	1021.6
36.32	11.05	5.69	1115.1	1021.4
36.33	11.06	5.69	1115.8	1021.4
36.34	11.06	5.69	1114.9	1021.4
36.35	11.06	5.69	1115.8	1021.4
36.36	11.06	5.69	1115.1	1021.4
36.37	11.06	5.69	1115.5	1021.5
36.38	11.05	5.69	1115.6	1021.4
36.39	11.05	5.69	1115.6	1021.5
36.4	11.05	5.69	1115.3	1021.2
36.41	11.06	5.69	1115.6	1021.2
36.42	11.05	5.69	1115.6	1021.2
36.43	11.07	5.7	1115.2	1021.2
36.44	11.06	5.69	1114.9	1021.3
36.45	11.06	5.69	1115.0	1021.2
36.46	11.06	5.69	1115.1	1021.3
36.47	11.06	5.69	1115.3	1021.3
36.48	11.06	5.69	1115.1	1021.3
36.49	11.07	5.69	1115.0	1021.2
36.5	11.07	5.69	1114.7	1021.2
36.51	11.07	5.69	1114.7	1021.4
36.52	11.05	5.69	1114.9	1021.3
36.53	11.05	5.69	1115.0	1020.9
36.54	11.06	5.69	1115.0	1021.1
36.55	11.06	5.69	1114.7	1020.8
36.56	11.06	5.69	1115.0	1020.9
36.57	11.07	5.69	1115.0	1020.9
36.58	11.06	5.69	1114.7	1020.9
36.59	11.06	5.69	1114.3	1020.9
36.6	11.06	5.68	1114.8	1020.8
36.61	11.05	5.68	1114.9	1021.0
36.62	11.06	5.69	1114.8	1020.9
36.63	11.06	5.69	1114.6	1020.9
36.64	11.06	5.69	1114.4	1020.9
36.65	11.06	5.69	1114.6	1021.0
36.66	11.06	5.68	1114.4	1021.0
36.67	11.06	5.69	1114.4	1020.9
36.68	11.06	5.68	1113.8	1020.8
36.69	11.06	5.69	1114.2	1021.0
36.7	11.06	5.69	1113.9	1021.0
36.71	11.06	5.68	1113.9	1020.8
36.72	11.07	5.69	1114.0	1021.1
36.73	11.06	5.68	1113.8	1020.6
36.74	11.07	5.69	1114.1	1020.6
36.75	11.06	5.69	1114.5	1020.6
36.76	11.06	5.68	1113.9	1020.7
36.77	11.06	5.68	1114.1	1020.8
36.78	11.05	5.68	1113.5	1020.7
36.79	11.06	5.69	1114.0	1020.5
36.8	11.07	5.69	1113.6	1020.6
36.81	11.05	5.68	1113.8	1020.7
36.82	11.06	5.69	1113.4	1020.7
36.83	11.06	5.68	1113.9	1020.8
36.84	11.05	5.68	1113.9	1020.5
36.85	11.06	5.68	1114.3	1020.4
36.86	11.06	5.68	1114.0	1020.8
36.87	11.05	5.68	1113.6	1020.6
36.88	11.05	5.68	1113.8	1020.4
36.89	11.05	5.68	1113.7	1020.6
36.9	11.05	5.68	1113.4	1020.6
36.91	11.05	5.68	1113.2	1020.7
36.92	11.05	5.68	1113.6	1020.5
36.93	11.06	5.68	1113.5	1020.5
36.94	11.06	5.68	1113.2	1020.6
36.95	11.07	5.68	1113.3	1020.4
36.96	11.06	5.68	1113.3	1020.5
36.97	11.07	5.68	1113.6	1020.3
36.98	11.07	5.68	1113.4	1020.4
36.99	11.06	5.68	1113.1	1020.5
37.0	11.05	5.68	1112.8	1020.7
37.01	11.06	5.68	1113.1	1020.5
37.02	11.06	5.68	1113.4	1020.4
37.03	11.07	5.68	1113.4	1020.2
37.04	11.06	5.68	1113.4	1020.4
37.05	11.07	5.68	1112.6	1020.5
37.06	11.06	5.68	1113.4	1020.1
37.07	11.06	5.68	1113.0	1020.3
37.08	11.06	5.68	1113.2	1020.4
37.09	11.05	5.68	1113.2	1020.2
37.1	11.05	5.68	1113.0	1019.9
37.11	11.06	5.68	1112.8	1020.1
37.12	11.06	5.68	1112.8	1020.1
37.13	11.06	5.68	1112.6	1020.0
37.14	11.06	5.68	1112.1	1020.0
37.15	11.06	5.68	1113.1	1020.1
37.16	11.06	5.68	1112.9	1020.3
37.17	11.05	5.68	1112.8	1020.1
37.18	11.05	5.68	1112.5	1020.0
37.19	11.06	5.68	1112.7	1020.0
37.2	11.06	5.68	1112.5	1020.1
37.21	11.06	5.68	1112.6	1020.1
37.22	11.06	5.68	1112.3	1020.0
37.23	11.06	5.68	1112.6	1019.9
37.24	11.07	5.68	1112.9	1019.9
37.25	11.06	5.68	1112.4	1019.8
37.26	11.06	5.68	1112.4	1020.0
37.27	11.06	5.68	1112.2	1019.8
37.28	11.06	5.68	1112.2	1019.8
37.29	11.06	5.68	1112.6	1019.8
37.3	11.06	5.68	1112.5	1019.5
37.31	11.05	5.67	1112.6	1019.8
37.32	11.06	5.68	1111.8	1019.7
37.33	11.04	5.67	1112.6	1019.7
37.34	11.06	5.67	1112.6	1019.8
37.35	11.06	5.68	1112.1	1019.7
37.36	11.06	5.68	1111.8	1019.6
37.37	11.06	5.68	1112.5	1019.8
37.38	11.07	5.68	1112.2	1019.8
37.39	11.05	5.67	1112.1	1019.7
37.4	11.07	5.68	1112.4	1019.7
37.41	11.06	5.67	1111.9	1019.6
37.42	11.06	5.67	1112.3	1019.8
37.43	11.06	5.67	1112.7	1019.8
37.44	11.07	5.68	1112.5	1019.7
37.45	11.06	5.67	1112.2	1019.5
37.46	11.06	5.68	1111.5	1019.5
37.47	11.05	5.67	1111.9	1019.6
37.48	11.07	5.67	1111.9	1019.6
37.49	11.05	5.67	1112.1	1019.4
37.5	11.06	5.67	1111.4	1019.5
37.51	11.05	5.67	1111.7	1019.6
37.52	11.07	5.67	1111.4	1019.4
37.53	11.07	5.67	1111.8	1019.4
37.54	11.07	5.68	1111.0	1019.3
37.55	11.06	5.67	1110.8	1019.6
37.56	11.05	5.67	1111.8	1019.5
37.57	11.07	5.68	1111.3	1019.3
37.58	11.05	5.67	1110.8	1019.3
37.59	11.06	5.67	1111.5	1019.0
37.6	11.05	5.67	1111.5	1019.1
37.61	11.06	5.67	1111.4	1019.2
37.62	11.06	5.67	1111.3	1019.0
37.63	11.05	5.67	1111.0	1019.0
37.64	11.06	5.67	1111.1	1019.1
37.65	11.07	5.68	1111.8	1019.2
37.66	11.05	5.67	1111.5	1019.0
37.67	11.07	5.67	1111.9	1019.1
37.68	11.05	5.67	1110.8	1019.0
37.69	11.07	5.67	1111.7	1019.2
37.7	11.06	5.67	1111.9	1019.0
37.71	11.07	5.67	1111.4	1019.1
37.72	11.05	5.67	1111.0	1019.3
37.73	11.07	5.67	1111.5	1019.2
37.74	11.05	5.67	1111.4	1019.1
37.75	11.07	5.67	1111.4	1019.0
37.76	11.05	5.67	1111.2	1019.0
37.77	11.06	5.67	1111.2	1019.0
37.78	11.06	5.67	1111.0	1019.0
37.79	11.06	5.67	1110.9	1018.9
37.8	11.06	5.67	1111.3	1019.0
37.81	11.07	5.67	1111.0	1018.9
37.82	11.06	5.67	1111.1	1019.0
37.83	11.06	5.67	1111.2	1018.8
37.84	11.06	5.67	1111.0	1018.8
37.85	11.05	5.66	1110.9	1018.9
37.86	11.07	5.67	1110.1	1019.0
37.87	11.06	5.66	1110.5	1019.0
37.88	11.06	5.67	1110.9	1018.9
37.89	11.06	5.67	1110.8	1019.0
37.9	11.06	5.67	1110.1	1018.8
37.91	11.06	5.67	1110.4	1018.9
37.92	11.07	5.67	1110.6	1018.7
37.93	11.04	5.66	1111.0	1019.0
37.94	11.06	5.67	1110.4	1018.9
37.95	11.06	5.66	1110.9	1018.7
37.96	11.06	5.67	1110.0	1018.9
37.97	11.07	5.67	1110.3	1018.7
37.98	11.06	5.66	1110.3	1018.6
37.99	11.05	5.66	1110.4	1019.0
38.0	11.06	5.66	1110.0	1018.4
38.01	11.06	5.67	1110.0	1018.5
38.02	11.07	5.67	1110.3	1018.7
38.03	11.05	5.66	1110.1	1018.6
38.04	11.05	5.66	1110.4	1018.9
38.05	11.07	5.67	1110.2	1018.5
38.06	11.06	5.66	1110.7	1018.6
38.07	11.05	5.66	1110.0	1018.7
38.08	11.07	5.66	1110.2	1018.6
38.09	11.07	5.67	1109.7	1018.7
38.1	11.06	5.66	1109.7	1018.6
38.11	11.05	5.66	1110.3	1018.4
38.12	11.06	5.66	1109.6	1018.6
38.13	11.05	5.66	1110.4	1018.4
38.14	11.06	5.66	1109.9	1018.5
38.15	11.06	5.67	1110.1	1018.8
38.16	11.05	5.66	1110.5	1018.4
38.17	11.06	5.67	1110.2	1018.6
38.18	11.05	5.66	1110.0	1018.5
38.19	11.06	5.66	1109.8	1018.5
38.2	11.07	5.66	1109.8	1018.5
38.21	11.06	5.66	1109.7	1018.4
38.22	11.06	5.66	1109.6	1018.5
38.23	11.05	5.66	1109.4	1018.4
38.24	11.05	5.66	1109.5	1018.3
38.25	11.07	5.66	1109.4	1018.4
38.26	11.06	5.66	1109.5	1018.4
38.27	11.06	5.66	1109.3	1018.4
38.28	11.05	5.66	1109.3	1018.2
38.29	11.06	5.66	1109.8	1018.3
38.3	11.06	5.66	1109.5	1018.4
38.31	11.07	5.66	1109.4	1018.3
38.32	11.05	5.66	1109.2	1018.3
38.33	11.06	5.66	1109.1	1018.1
38.34	11.04	5.65	1109.3	1018.2
38.35	11.07	5.67	1109.3	1018.3
38.36	11.06	5.66	1108.9	1018.3
38.37	11.05	5.66	1108.6	1018.4
38.38	11.05	5.66	1109.1	1018.2
38.39	11.06	5.66	1109.1	1018.3
38.4	11.05	5.66	1109.2	1018.3
38.41	11.07	5.66	1108.8	1018.4
38.42	11.06	5.66	1108.1	1018.4
38.43	11.07	5.66	1108.7	1018.2
38.44	11.05	5.66	1108.6	1018.4
38.45	11.05	5.66	1108.5	1018.4
38.46	11.07	5.66	1108.0	1018.2
38.47	11.07	5.66	1108.4	1018.3
38.48	11.07	5.66	1108.3	1018.1
38.49	11.05	5.65	1108.6	1018.1
38.5	11.06	5.65	1108.4	1018.2
38.51	11.06	5.66	1108.3	1017.9
38.52	11.07	5.66	1109.0	1018.1
38.53	11.07	5.66	1108.3	1018.0
38.54	11.05	5.65	1108.8	1017.8
38.55	11.05	5.65	1108.5	1018.0
38.56	11.06	5.66	1108.9	1018.0
38.57	11.06	5.66	1108.6	1018.0
38.58	11.05	5.65	1108.7	1018.0
38.59	11.06	5.66	1108.8	1018.1
38.6	11.06	5.65	1108.0	1018.3
38.61	11.06	5.66	1108.5	1018.4
38.62	11.07	5.66	1108.1	1018.1
38.63	11.05	5.65	1108.1	1018.2
38.64	11.06	5.66	1108.1	1018.0
38.65	11.06	5.66	1108.4	1018.0
38.66	11.06	5.66	1108.5	1018.0
38.67	11.05	5.65	1108.1	1018.0
38.68	11.05	5.65	1108.6	1017.9
38.69	11.06	5.66	1108.2	1017.8
38.7	11.06	5.65	1108.4	1017.6
38.71	11.05	5.65	1107.7	1017.5
38.72	11.05	5.65	1108.1	1017.7
38.73	11.05	5.65	1108.1	1017.7
38.74	11.07	5.65	1108.0	1017.5
38.75	11.05	5.65	1107.8	1017.8
38.76	11.06	5.66	1108.0	1017.6
38.77	11.07	5.66	1107.8	1017.7
38.78	11.07	5.66	1107.5	1018.0
38.79	11.07	5.66	1108.1	1017.7
38.8	11.06	5.65	1108.2	1017.7
38.81	11.05	5.65	1108.3	1017.8
38.82	11.07	5.66	1107.7	1017.5
38.83	11.07	5.66	1107.9	1017.5
38.84	11.06	5.65	1107.8	1017.7
38.85	11.05	5.65	1107.6	1017.5
38.86	11.05	5.65	1107.2	1017.8
38.87	11.07	5.65	1107.1	1017.5
38.88	11.06	5.66	1107.5	1017.5
38.89	11.06	5.65	1107.2	1017.4
38.9	11.06	5.65	1107.0	1017.6
38.91	11.05	5.65	1107.0	1017.4
38.92	11.06	5.65	1107.5	1017.4
38.93	11.06	5.65	1107.2	1017.3
38.94	11.06	5.65	1107.3	1017.5
38.95	11.07	5.66	1107.0	1017.4
38.96	11.05	5.65	1107.2	1017.4
38.97	11.07	5.65	1107.5	1017.5
38.98	11.06	5.65	1107.3	1017.5
38.99	11.05	5.65	1107.6	1017.5
39.0	11.05	5.65	1107.0	1017.4
39.01	11.06	5.65	1107.4	1017.4
39.02	11.05	5.65	1107.3	1017.2
39.03	11.06	5.65	1107.3	1017.3
39.04	11.05	5.65	1106.7	1017.5
39.05	11.06	5.65	1107.6	1017.4
39.06	11.05	5.65	1107.4	1017.4
39.07	11.05	5.65	1107.0	1017.4
39.08	11.05	5.65	1107.1	1017.3
39.09	11.06	5.65	1107.0	1017.4
39.1	11.05	5.65	1107.0	1017.3
39.11	11.05	5.65	1107.0	1017.2
39.12	11.06	5.65	1107.3	1017.2
39.13	11.06	5.65	1107.0	1017.3
39.14	11.04	5.65	1107.0	1017.2
39.15	11.06	5.65	1106.8	1017.4
39.16	11.06	5.65	1107.2	1017.2
39.17	11.07	5.65	1107.0	1017.1
39.18	11.06	5.65	1106.3	1017.1
39.19	11.06	5.65	1106.6	1017.2
39.2	11.07	5.65	1106.8	1017.2
39.21	11.06	5.64	1106.5	1017.2
39.22	11.05	5.64	1106.1	1017.1
39.23	11.06	5.65	1106.2	1017.2
39.24	11.05	5.65	1106.6	1017.2
39.25	11.05	5.64	1106.8	1017.1
39.26	11.06	5.65	1106.2	1017.1
39.27	11.06	5.65	1106.2	1017.1
39.28	11.06	5.65	1106.2	1017.1
39.29	11.06	5.65	1106.2	1017.1
39.3	11.07	5.65	1106.0	1017.1
39.31	11.08	5.65	1105.8	1017.4
39.32	11.06	5.64	1106.2	1017.1
39.33	11.05	5.65	1106.4	1017.1
39.34	11.07	5.65	1106.0	1017.0
39.35	11.05	5.64	1105.8	1017.2
39.36	11.07	5.65	1105.8	1017.1
39.37	11.05	5.64	1106.1	1016.9
39.38	11.06	5.64	1106.3	1016.9
39.39	11.06	5.65	1106.0	1017.1
39.4	11.06	5.65	1106.0	1017.0
39.41	11.05	5.64	1106.6	1017.1
39.42	11.07	5.65	1106.4	1017.0
39.43	11.06	5.65	1106.2	1017.1
39.44	11.06	5.65	1106.2	1016.9
39.45	11.05	5.64	1106.0	1016.8
39.46	11.06	5.64	1106.2	1016.8
39.47	11.06	5.65	1105.4	1016.7
39.48	11.06	5.64	1106.2	1016.9
39.49	11.05	5.64	1105.4	1016.9
39.5	11.05	5.64	1106.1	1016.7
39.51	11.05	5.64	1106.3	1016.9
39.52	11.06	5.64	1105.6	1016.6
39.53	11.06	5.64	1105.9	1016.8
39.54	11.07	5.64	1105.4	1016.9
39.55	11.07	5.64	1105.9	1016.9
39.56	11.05	5.64	1105.7	1016.8
39.57	11.05	5.64	1105.7	1016.5
39.58	11.07	5.65	1105.3	1016.8
39.59	11.06	5.64	1105.4	1016.6
39.6	11.05	5.64	1105.5	1016.7
39.61	11.06	5.64	1105.8	1016.8
39.62	11.07	5.65	1105.4	1016.6
39.63	11.05	5.64	1105.1	1016.6
39.64	11.05	5.64	1105.7	1016.7
39.65	11.05	5.64	1105.4	1016.6
39.66	11.05	5.64	1105.7	1016.5
39.67	11.06	5.64	1105.1	1016.6
39.68	11.07	5.64	1105.1	1016.7
39.69	11.06	5.64	1105.5	1016.5
39.7	11.06	5.64	1105.6	1016.6
39.71	11.06	5.64	1105.2	1016.6
39.72	11.07	5.65	1105.0	1016.6
39.73	11.06	5.64	1104.8	1016.5
39.74	11.05	5.64	1104.9	1016.4
39.75	11.06	5.64	1104.9	1016.7
39.76	11.06	5.65	1104.7	1016.4
39.77	11.06	5.64	1104.9	1016.6
39.78	11.05	5.64	1105.2	1016.4
39.79	11.06	5.64	1105.4	1016.6
39.8	11.05	5.64	1104.6	1016.6
39.81	11.06	5.64	1105.0	1016.4
39.82	11.06	5.64	1105.5	1016.6
39.83	11.07	5.64	1105.4	1016.5
39.84	11.06	5.64	1104.9	1016.5
39.85	11.05	5.64	1104.8	1016.2
39.86	11.05	5.64	1105.5	1016.1
39.87	11.06	5.64	1104.7	1016.3
39.88	11.06	5.64	1105.2	1016.1
39.89	11.05	5.64	1104.1	1016.5
39.9	11.05	5.64	1104.9	1016.2
39.91	11.06	5.64	1105.3	1016.4
39.92	11.05	5.64	1104.5	1016.2
39.93	11.06	5.64	1104.9	1016.2
39.94	11.06	5.64	1104.3	1016.4
39.95	11.07	5.64	1104.6	1016.2
39.96	11.06	5.64	1104.8	1016.2
39.97	11.07	5.64	1104.7	1016.3
39.98	11.06	5.64	1104.3	1016.3
39.99	11.07	5.64	1104.7	1016.3
40.0	11.06	5.64	1104.6	1016.4
40.01	11.06	5.64	1104.4	1016.1
40.02	11.06	5.64	1104.5	1016.3
40.03	11.07	5.64	1103.8	1016.4
40.04	11.07	5.64	1104.8	1016.1
40.05	11.06	5.64	1104.4	1016.1
40.06	11.07	5.64	1104.8	1016.3
40.07	11.06	5.63	1104.6	1016.3
40.08	11.06	5.64	1104.4	1016.2
40.09	11.06	5.64	1104.2	1016.3
40.1	11.06	5.64	1104.1	1016.0
40.11	11.06	5.64	1104.1	1016.0
40.12	11.06	5.63	1103.4	1016.3
40.13	11.06	5.64	1103.8	1016.1
40.14	11.06	5.64	1103.6	1016.1
40.15	11.06	5.64	1103.6	1016.0
40.16	11.08	5.64	1103.4	1015.8
40.17	11.05	5.63	1103.4	1016.2
40.18	11.06	5.63	1103.7	1015.9
40.19	11.06	5.64	1103.6	1016.1
40.2	11.04	5.63	1103.6	1016.0
40.21	11.04	5.63	1103.1	1015.9
40.22	11.05	5.63	1103.5	1016.0
40.23	11.04	5.63	1103.7	1016.1
40.24	11.06	5.63	1103.4	1015.7
40.25	11.06	5.64	1103.5	1015.9
40.26	11.06	5.63	1103.0	1016.0
40.27	11.06	5.64	1103.4	1016.0
40.28	11.05	5.63	1103.3	1015.8
40.29	11.06	5.63	1103.1	1016.0
40.3	11.06	5.64	1103.2	1016.0
40.31	11.05	5.63	1103.2	1015.9
40.32	11.05	5.63	1103.4	1016.1
40.33	11.07	5.64	1103.6	1016.0
40.34	11.05	5.63	1103.8	1015.7
40.35	11.05	5.63	1102.8	1016.0
40.36	11.05	5.63	1103.4	1015.8
40.37	11.06	5.64	1103.1	1015.8
40.38	11.06	5.63	1103.3	1015.9
40.39	11.05	5.63	1103.4	1015.8
40.4	11.07	5.64	1103.1	1015.8
40.41	11.06	5.64	1103.2	1015.6
40.42	11.05	5.63	1103.5	1015.5
40.43	11.06	5.64	1103.6	1015.9
40.44	11.06	5.64	1103.1	1015.8
40.45	11.07	5.63	1103.2	1015.7
40.46	11.06	5.63	1103.1	1015.4
40.47	11.07	5.63	1103.0	1015.5
40.48	11.06	5.63	1102.6	1015.6
40.49	11.06	5.63	1102.8	1015.6
40.5	11.05	5.63	1102.7	1015.4
40.51	11.06	5.63	1103.1	1015.4
40.52	11.06	5.64	1102.9	1015.6
40.53	11.07	5.64	1102.5	1015.3
40.54	11.05	5.63	1102.8	1015.4
40.55	11.06	5.63	1102.5	1015.4
40.56	11.06	5.63	1102.6	1015.3
40.57	11.06	5.63	1102.0	1015.4
40.58	11.07	5.64	1102.2	1015.4
40.59	11.06	5.63	1102.1	1015.3
40.6	11.05	5.63	1102.3	1015.4
40.61	11.04	5.63	1102.4	1015.5
40.62	11.04	5.63	1101.7	1015.5
40.63	11.07	5.63	1102.2	1015.3
40.64	11.06	5.63	1102.2	1015.5
40.65	11.06	5.63	1102.0	1015.7
40.66	11.06	5.63	1102.1	1015.4
40.67	11.06	5.63	1102.1	1015.3
40.68	11.06	5.63	1102.5	1015.3
40.69	11.05	5.63	1102.2	1015.3
40.7	11.06	5.63	1101.9	1015.2
40.71	11.05	5.63	1101.7	1015.3
40.72	11.06	5.63	1102.6	1015.4
40.73	11.05	5.63	1102.3	1015.1
40.74	11.06	5.63	1102.2	1015.4
40.75	11.07	5.63	1102.3	1015.2
40.76	11.07	5.63	1101.9	1015.3
40.77	11.06	5.63	1102.1	1015.4
40.78	11.06	5.63	1102.2	1015.2
40.79	11.06	5.63	1102.0	1015.0
40.8	11.06	5.63	1101.7	1015.0
40.81	11.06	5.63	1101.7	1015.0
40.82	11.07	5.63	1102.2	1015.0
40.83	11.05	5.63	1101.6	1014.9
40.84	11.06	5.63	1101.7	1015.0
40.85	11.05	5.63	1101.8	1015.0
40.86	11.06	5.63	1102.1	1015.0
40.87	11.07	5.63	1101.9	1015.2
40.88	11.06	5.63	1102.3	1015.1
40.89	11.06	5.63	1101.9	1015.1
40.9	11.06	5.63	1102.0	1015.0
40.91	11.05	5.62	1102.0	1015.1
40.92	11.05	5.62	1101.9	1015.2
40.93	11.06	5.62	1101.7	1015.1
40.94	11.07	5.63	1101.7	1015.2
40.95	11.05	5.63	1101.8	1015.1
40.96	11.05	5.62	1101.5	1014.9
40.97	11.05	5.63	1101.8	1015.1
40.98	11.06	5.63	1101.0	1014.8
40.99	11.06	5.63	1101.4	1015.1
41.0	11.05	5.62	1101.6	1014.8
41.01	11.06	5.63	1101.7	1014.8
41.02	11.08	5.63	1101.7	1015.0
41.03	11.06	5.63	1101.5	1014.9
41.04	11.06	5.63	1101.6	1015.0
41.05	11.07	5.63	1101.5	1014.9
41.06	11.06	5.63	1101.8	1014.7
41.07	11.05	5.62	1101.3	1014.7
41.08	11.06	5.62	1101.2	1014.8
41.09	11.07	5.63	1102.3	1014.8
41.1	11.05	5.63	1101.2	1015.0
41.11	11.05	5.62	1101.2	1014.9
41.12	11.05	5.62	1100.9	1014.8
41.13	11.05	5.62	1100.9	1014.8
41.14	11.05	5.62	1101.2	1014.9
41.15	11.07	5.63	1101.0	1014.8
41.16	11.06	5.63	1101.2	1014.7
41.17	11.07	5.63	1101.0	1014.8
41.18	11.06	5.63	1101.1	1014.6
41.19	11.06	5.62	1100.8	1014.9
41.2	11.06	5.63	1101.2	1014.7
41.21	11.05	5.62	1100.4	1014.7
41.22	11.06	5.63	1101.0	1014.9
41.23	11.07	5.63	1100.6	1014.6
41.24	11.05	5.62	1101.1	1014.6
41.25	11.06	5.62	1101.1	1014.8
41.26	11.06	5.62	1100.7	1014.8
41.27	11.06	5.62	1101.4	1014.9
41.28	11.06	5.63	1101.0	1014.7
41.29	11.07	5.63	1100.7	1014.5
41.3	11.06	5.63	1100.3	1014.4
41.31	11.05	5.62	1100.3	1014.6
41.32	11.06	5.62	1101.1	1014.6
41.33	11.07	5.63	1101.0	1014.6
41.34	11.05	5.62	1101.3	1014.4
41.35	11.05	5.62	1100.5	1014.6
41.36	11.06	5.62	1100.6	1014.3
41.37	11.06	5.62	1100.8	1014.6
41.38	11.07	5.62	1100.7	1014.4
41.39	11.05	5.62	1100.3	1014.5
41.4	11.06	5.62	1100.2	1014.5
41.41	11.05	5.62	1100.3	1014.7
41.42	11.04	5.61	1100.2	1014.6
41.43	11.05	5.62	1100.0	1014.4
41.44	11.05	5.62	1099.7	1014.5
41.45	11.04	5.62	1099.8	1014.4
41.46	11.06	5.62	1100.4	1014.5
41.47	11.05	5.62	1099.6	1014.4
41.48	11.05	5.62	1100.2	1014.6
41.49	11.06	5.62	1099.3	1014.4
41.5	11.06	5.62	1099.8	1014.4
41.51	11.06	5.62	1099.8	1014.4
41.52	11.06	5.62	1100.0	1014.5
41.53	11.05	5.62	1099.9	1014.4
41.54	11.07	5.62	1099.8	1014.1
41.55	11.05	5.62	1099.8	1014.0
41.56	11.07	5.62	1099.7	1014.2
41.57	11.06	5.62	1100.2	1014.1
41.58	11.06	5.62	1099.7	1014.4
41.59	11.06	5.62	1099.8	1014.1
41.6	11.06	5.62	1099.5	1014.2
41.61	11.07	5.62	1099.6	1014.4
41.62	11.06	5.62	1099.8	1014.0
41.63	11.06	5.62	1099.9	1014.0
41.64	11.06	5.62	1099.9	1014.3
41.65	11.05	5.61	1099.8	1014.2
41.66	11.06	5.62	1099.0	1014.4
41.67	11.05	5.62	1099.2	1014.1
41.68	11.06	5.62	1099.7	1014.4
41.69	11.07	5.62	1099.1	1014.2
41.7	11.05	5.62	1099.5	1014.1
41.71	11.06	5.62	1099.1	1014.2
41.72	11.04	5.61	1099.6	1014.0
41.73	11.05	5.62	1099.5	1014.1
41.74	11.06	5.62	1099.7	1014.1
41.75	11.05	5.62	1099.7	1014.1
41.76	11.04	5.61	1099.3	1014.4
41.77	11.05	5.62	1099.2	1014.0
41.78	11.05	5.62	1099.2	1014.1
41.79	11.07	5.62	1099.2	1014.0
41.8	11.06	5.62	1098.9	1013.9
41.81	11.07	5.62	1099.2	1014.0
41.82	11.06	5.62	1099.2	1013.9
41.83	11.06	5.62	1099.5	1014.0
41.84	11.06	5.62	1099.4	1014.1
41.85	11.06	5.62	1099.2	1014.0
41.86	11.05	5.61	1099.2	1013.9
41.87	11.06	5.62	1099.0	1014.2
41.88	11.06	5.62	1099.3	1014.0
41.89	11.06	5.62	1099.0	1013.8
41.9	11.06	5.62	1099.2	1013.9
41.91	11.06	5.62	1099.1	1014.0
41.92	11.07	5.62	1099.3	1013.9
41.93	11.06	5.61	1099.0	1013.9
41.94	11.05	5.62	1098.6	1014.0
41.95	11.06	5.62	1099.3	1013.9
41.96	11.05	5.61	1099.4	1013.9
41.97	11.06	5.61	1098.7	1013.6
41.98	11.06	5.62	1098.1	1013.8
41.99	11.06	5.61	1098.5	1013.8
42.0	11.06	5.62	1098.7	1013.7
42.01	11.05	5.61	1099.0	1013.6
42.02	11.06	5.61	1098.8	1013.8
42.03	11.05	5.61	1098.5	1013.8
42.04	11.06	5.61	1099.2	1013.9
42.05	11.06	5.62	1098.6	1013.5
42.06	11.05	5.61	1099.0	1013.7
42.07	11.05	5.61	1098.5	1013.6
42.08	11.06	5.61	1098.3	1013.6
42.09	11.06	5.62	1098.8	1013.8
42.1	11.06	5.61	1098.4	1013.5
42.11	11.07	5.62	1098.5	1013.6
42.12	11.06	5.61	1098.5	1013.7
42.13	11.06	5.61	1098.8	1013.8
42.14	11.06	5.61	1098.7	1013.7
42.15	11.05	5.61	1098.7	1013.7
42.16	11.06	5.61	1098.7	1013.7
42.17	11.05	5.62	1098.1	1013.6
42.18	11.06	5.61	1098.6	1013.4
42.19	11.06	5.62	1098.5	1013.7
42.2	11.05	5.61	1098.2	1013.5
42.21	11.05	5.61	1098.6	1013.7
42.22	11.06	5.61	1099.0	1013.8
42.23	11.05	5.61	1098.4	1013.6
42.24	11.06	5.61	1099.0	1013.6
42.25	11.05	5.61	1098.3	1013.4
42.26	11.06	5.61	1098.7	1013.3
42.27	11.06	5.61	1098.1	1013.5
42.28	11.08	5.62	1098.8	1013.6
42.29	11.06	5.61	1098.8	1013.2
42.3	11.06	5.61	1097.8	1013.4
42.31	11.07	5.62	1098.3	1013.5
42.32	11.06	5.61	1098.4	1013.5
42.33	11.06	5.61	1098.3	1013.4
42.34	11.07	5.61	1097.8	1013.2
42.35	11.06	5.62	1098.4	1013.4
42.36	11.07	5.61	1097.9	1013.3
42.37	11.06	5.61	1097.4	1013.2
42.38	11.06	5.61	1097.9	1013.4
42.39	11.05	5.61	1097.3	1013.2
42.4	11.07	5.61	1098.1	1013.4
42.41	11.06	5.61	1097.8	1013.2
42.42	11.05	5.61	1097.5	1013.2
42.43	11.04	5.61	1097.2	1013.3
42.44	11.06	5.61	1097.8	1012.9
42.45	11.05	5.61	1097.7	1013.1
42.46	11.05	5.61	1097.8	1013.2
42.47	11.07	5.61	1097.0	1013.2
42.48	11.05	5.61	1097.6	1013.1
42.49	11.07	5.62	1097.7	1012.8
42.5	11.06	5.61	1097.2	1013.4
42.51	11.05	5.6	1097.1	1013.1
42.52	11.07	5.62	1097.3	1012.8
42.53	11.06	5.61	1097.4	1013.2
42.54	11.04	5.61	1097.4	1013.0
42.55	11.06	5.61	1096.6	1013.0
42.56	11.05	5.61	1096.4	1013.0
42.57	11.06	5.61	1096.8	1013.1
42.58	11.06	5.61	1097.8	1013.0
42.59	11.07	5.61	1097.0	1013.3
42.6	11.07	5.61	1097.3	1013.1
42.61	11.06	5.61	1096.8	1013.1
42.62	11.06	5.61	1096.8	1013.1
42.63	11.06	5.61	1096.9	1013.0
42.64	11.04	5.6	1096.8	1013.0
42.65	11.06	5.61	1096.4	1013.0
42.66	11.05	5.61	1096.8	1013.1
42.67	11.06	5.61	1096.8	1012.8
42.68	11.06	5.61	1096.9	1012.9
42.69	11.05	5.61	1096.6	1013.0
42.7	11.07	5.61	1096.5	1012.7
42.71	11.06	5.61	1096.4	1012.9
42.72	11.06	5.61	1096.7	1012.9
42.73	11.06	5.61	1096.7	1012.9
42.74	11.05	5.61	1096.7	1012.8
42.75	11.06	5.61	1096.7	1012.8
42.76	11.06	5.61	1096.9	1012.8
42.77	11.05	5.6	1096.6	1012.7
42.78	11.06	5.61	1096.8	1012.9
42.79	11.05	5.61	1096.3	1012.7
42.8	11.06	5.61	1096.9	1012.8
42.81	11.05	5.61	1096.4	1012.7
42.82	11.06	5.61	1096.5	1012.9
42.83	11.07	5.61	1096.6	1012.8
42.84	11.07	5.61	1096.6	1012.6
42.85	11.07	5.61	1096.9	1012.8
42.86	11.06	5.61	1096.8	1012.7
42.87	11.05	5.6	1096.8	1012.8
42.88	11.07	5.61	1096.4	1012.8
42.89	11.06	5.61	1096.0	1012.7
42.9	11.05	5.6	1096.5	1012.6
42.91	11.05	5.61	1096.7	1013.0
42.92	11.06	5.6	1096.1	1012.7
42.93	11.06	5.61	1096.4	1012.6
42.94	11.06	5.6	1096.2	1012.8
42.95	11.05	5.6	1096.2	1012.5
42.96	11.07	5.61	1096.3	1012.8
42.97	11.05	5.61	1095.7	1012.6
42.98	11.07	5.61	1096.1	1012.6
42.99	11.07	5.61	1096.1	1012.7
43.0	11.06	5.6	1096.0	1012.5
43.01	11.06	5.61	1095.5	1012.6
43.02	11.07	5.61	1096.2	1012.5
43.03	11.06	5.61	1095.9	1012.4
43.04	11.06	5.6	1096.3	1012.4
43.05	11.04	5.6	1095.6	1012.5
43.06	11.06	5.6	1095.8	1012.6
43.07	11.06	5.61	1095.6	1012.4
43.08	11.06	5.6	1095.8	1012.6
43.09	11.05	5.6	1095.5	1012.4
43.1	11.05	5.6	1096.2	1012.4
43.11	11.06	5.6	1096.1	1012.4
43.12	11.06	5.61	1096.0	1012.6
43.13	11.06	5.6	1095.6	1012.4
43.14	11.06	5.6	1095.2	1012.3
43.15	11.06	5.6	1095.1	1012.6
43.16	11.05	5.6	1095.5	1012.5
43.17	11.06	5.61	1095.3	1012.7
43.18	11.05	5.6	1094.8	1012.5
43.19	11.06	5.6	1095.1	1012.3
43.2	11.05	5.6	1095.9	1012.4
43.21	11.06	5.61	1095.7	1012.3
43.22	11.04	5.6	1095.5	1012.4
43.23	11.06	5.6	1095.1	1012.4
43.24	11.06	5.6	1095.4	1012.4
43.25	11.05	5.6	1095.0	1012.6
43.26	11.06	5.6	1095.0	1012.5
43.27	11.06	5.6	1095.3	1012.3
43.28	11.05	5.6	1094.7	1012.4
43.29	11.06	5.6	1094.8	1012.3
43.3	11.05	5.6	1094.8	1012.5
43.31	11.06	5.6	1095.2	1012.1
43.32	11.06	5.6	1095.1	1012.0
43.33	11.06	5.6	1094.5	1012.2
43.34	11.04	5.6	1095.7	1011.9
43.35	11.07	5.61	1094.8	1012.2
43.36	11.05	5.6	1095.4	1012.1
43.37	11.06	5.6	1094.5	1012.3
43.38	11.07	5.61	1095.2	1011.9
43.39	11.05	5.6	1094.7	1012.2
43.4	11.06	5.6	1095.0	1011.9
43.41	11.06	5.6	1095.0	1012.2
43.42	11.06	5.6	1094.8	1012.1
43.43	11.06	5.6	1094.8	1011.7
43.44	11.05	5.6	1094.7	1012.0
43.45	11.07	5.6	1094.6	1012.1
43.46	11.07	5.61	1094.3	1011.9
43.47	11.06	5.6	1094.5	1012.0
43.48	11.06	5.6	1094.6	1012.2
43.49	11.05	5.6	1094.5	1011.9
43.5	11.06	5.6	1094.4	1012.0
43.51	11.05	5.6	1094.0	1011.8
43.52	11.06	5.6	1094.6	1012.0
43.53	11.06	5.6	1094.4	1011.9
43.54	11.06	5.6	1095.0	1011.7
43.55	11.06	5.6	1094.2	1011.8
43.56	11.07	5.6	1094.5	1012.0
43.57	11.06	5.6	1094.6	1011.9
43.58	11.06	5.6	1094.3	1011.7
43.59	11.05	5.6	1094.4	1011.9
43.6	11.06	5.6	1093.9	1011.9
43.61	11.05	5.6	1094.1	1011.7
43.62	11.06	5.6	1094.5	1012.1
43.63	11.06	5.6	1094.5	1011.8
43.64	11.06	5.6	1094.1	1011.9
43.65	11.05	5.6	1094.2	1012.1
43.66	11.06	5.6	1094.0	1011.8
43.67	11.05	5.6	1093.6	1011.7
43.68	11.05	5.59	1094.4	1012.0
43.69	11.05	5.6	1093.6	1011.7
43.7	11.06	5.6	1094.2	1011.7
43.71	11.06	5.6	1093.6	1011.9
43.72	11.05	5.6	1093.6	1011.6
43.73	11.05	5.6	1093.3	1012.0
43.74	11.06	5.6	1093.6	1011.7
43.75	11.06	5.6	1093.6	1011.7
43.76	11.07	5.6	1093.3	1011.7
43.77	11.06	5.6	1092.8	1011.5
43.78	11.06	5.6	1093.2	1011.5
43.79	11.06	5.6	1093.8	1011.6
43.8	11.06	5.59	1093.9	1011.7
43.81	11.06	5.59	1093.3	1011.6
43.82	11.08	5.61	1093.7	1011.6
43.83	11.06	5.6	1093.5	1011.8
43.84	11.06	5.6	1093.8	1011.8
43.85	11.06	5.6	1093.6	1011.5
43.86	11.06	5.6	1094.0	1011.6
43.87	11.06	5.6	1093.2	1011.8
43.88	11.06	5.6	1093.7	1011.6
43.89	11.08	5.6	1093.3	1011.5
43.9	11.05	5.6	1093.3	1011.4
43.91	11.06	5.59	1093.3	1011.7
43.92	11.07	5.6	1093.3	1011.4
43.93	11.06	5.6	1093.8	1012.0
43.94	11.05	5.59	1093.4	1011.5
43.95	11.05	5.59	1093.0	1011.6
43.96	11.05	5.59	1092.8	1011.5
43.97	11.05	5.59	1092.7	1011.4
43.98	11.05	5.59	1093.3	1011.7
43.99	11.06	5.6	1093.0	1011.4
44.0	11.06	5.6	1092.7	1011.5
44.01	11.06	5.6	1092.8	1011.4
44.02	11.06	5.6	1093.6	1011.3
44.03	11.06	5.59	1092.5	1011.1
44.04	11.06	5.6	1092.8	1011.2
44.05	11.07	5.6	1092.5	1011.6
44.06	11.05	5.59	1092.6	1011.2
44.07	11.06	5.6	1092.4	1011.1
44.08	11.06	5.6	1092.7	1011.4
44.09	11.06	5.59	1092.2	1011.1
44.1	11.07	5.6	1092.6	1011.4
44.11	11.06	5.59	1092.6	1011.0
44.12	11.06	5.6	1092.5	1011.2
44.13	11.07	5.6	1092.4	1011.4
44.14	11.06	5.59	1092.3	1011.3
44.15	11.06	5.59	1092.5	1011.4
44.16	11.06	5.59	1092.3	1011.2
44.17	11.07	5.6	1092.3	1011.3
44.18	11.06	5.6	1092.1	1011.3
44.19	11.07	5.6	1092.3	1011.2
44.2	11.06	5.59	1092.6	1011.3
44.21	11.06	5.6	1092.5	1011.5
44.22	11.07	5.6	1092.7	1011.2
44.23	11.05	5.59	1091.7	1011.2
44.24	11.06	5.59	1092.7	1011.3
44.25	11.05	5.59	1092.7	1011.2
44.26	11.05	5.59	1092.5	1011.3
44.27	11.06	5.59	1092.3	1011.2
44.28	11.06	5.59	1092.4	1011.3
44.29	11.05	5.59	1092.0	1011.2
44.3	11.06	5.59	1092.4	1011.3
44.31	11.04	5.59	1091.8	1011.1
44.32	11.06	5.6	1091.9	1011.0
44.33	11.06	5.59	1092.0	1011.2
44.34	11.06	5.59	1092.2	1011.0
44.35	11.05	5.6	1092.1	1011.3
44.36	11.06	5.59	1092.2	1011.0
44.37	11.05	5.59	1091.7	1010.8
44.38	11.06	5.59	1092.4	1011.2
44.39	11.05	5.59	1092.0	1010.9
44.4	11.06	5.59	1092.6	1011.1
44.41	11.06	5.59	1092.1	1011.2
44.42	11.06	5.59	1091.9	1011.3
44.43	11.06	5.59	1092.2	1011.1
44.44	11.06	5.6	1092.4	1011.1
44.45	11.05	5.59	1091.9	1010.9
44.46	11.06	5.59	1091.8	1011.2
44.47	11.07	5.59	1091.8	1010.8
44.48	11.06	5.59	1091.9	1011.0
44.49	11.05	5.59	1092.2	1011.0
44.5	11.06	5.59	1091.6	1011.0
44.51	11.05	5.59	1091.5	1010.9
44.52	11.06	5.59	1091.8	1011.0
44.53	11.05	5.59	1091.5	1011.0
44.54	11.05	5.59	1092.2	1011.1
44.55	11.05	5.59	1091.5	1011.2
44.56	11.06	5.59	1092.0	1011.0
44.57	11.07	5.59	1091.7	1011.0
44.58	11.05	5.59	1091.7	1010.9
44.59	11.07	5.59	1091.3	1010.9
44.6	11.06	5.59	1091.9	1011.0
44.61	11.06	5.59	1092.0	1010.8
44.62	11.07	5.59	1091.9	1010.7
44.63	11.06	5.59	1091.0	1011.2
44.64	11.05	5.59	1090.9	1010.6
44.65	11.05	5.59	1091.9	1010.8
44.66	11.06	5.59	1091.4	1010.7
44.67	11.06	5.59	1091.2	1010.8
44.68	11.06	5.59	1091.4	1010.7
44.69	11.06	5.59	1091.4	1010.8
44.7	11.06	5.59	1091.6	1010.7
44.71	11.05	5.59	1091.3	1011.0
44.72	11.06	5.59	1091.4	1010.7
44.73	11.06	5.59	1091.1	1010.6
44.74	11.05	5.59	1091.1	1010.7
44.75	11.06	5.59	1091.0	1010.8
44.76	11.05	5.59	1090.7	1010.8
44.77	11.06	5.59	1090.4	1010.7
44.78	11.05	5.59	1091.0	1010.8
44.79	11.06	5.59	1091.0	1010.7
44.8	11.05	5.59	1091.4	1010.8
44.81	11.06	5.59	1091.2	1010.8
44.82	11.05	5.59	1090.7	1010.6
44.83	11.06	5.59	1091.4	1010.8
44.84	11.06	5.59	1091.1	1010.8
44.85	11.06	5.59	1090.5	1010.7
44.86	11.06	5.59	1090.6	1010.8
44.87	11.05	5.59	1090.7	1010.6
44.88	11.06	5.59	1090.6	1011.0
44.89	11.06	5.59	1090.6	1010.7
44.9	11.06	5.59	1090.8	1010.7
44.91	11.06	5.59	1090.7	1010.7
44.92	11.05	5.58	1090.9	1010.8
44.93	11.06	5.59	1090.8	1010.8
44.94	11.05	5.59	1090.8	1010.8
44.95	11.06	5.59	1090.4	1010.5
44.96	11.06	5.59	1091.0	1010.8
44.97	11.05	5.59	1090.1	1010.6
44.98	11.07	5.59	1090.9	1010.9
44.99	11.05	5.59	1090.0	1010.6
45.0	11.07	5.59	1090.2	1010.6
45.01	11.07	5.59	1090.5	1010.4
45.02	11.06	5.59	1091.0	1010.6
45.03	11.07	5.59	1090.3	1010.3
45.04	11.06	5.59	1090.4	1010.5
45.05	11.06	5.59	1090.5	1010.5
45.06	11.06	5.59	1090.4	1010.3
45.07	11.05	5.59	1090.7	1010.5
45.08	11.06	5.58	1090.7	1010.3
45.09	11.05	5.59	1090.4	1010.5
45.1	11.07	5.59	1090.7	1010.4
45.11	11.06	5.59	1090.1	1010.4
45.12	11.07	5.59	1090.2	1010.4
45.13	11.05	5.58	1090.2	1010.4
45.14	11.06	5.59	1090.0	1010.6
45.15	11.06	5.59	1090.0	1010.5
45.16	11.06	5.59	1090.8	1010.4
45.17	11.05	5.59	1090.0	1010.5
45.18	11.07	5.59	1090.3	1010.1
45.19	11.05	5.59	1090.2	1010.1
45.2	11.07	5.59	1090.4	1010.4
45.21	11.05	5.58	1090.3	1010.1
45.22	11.06	5.58	1090.2	1010.3
45.23	11.05	5.58	1090.4	1010.1
45.24	11.06	5.59	1090.3	1010.5
45.25	11.06	5.59	1090.1	1010.5
45.26	11.07	5.59	1090.0	1010.3
45.27	11.06	5.59	1089.9	1010.2
45.28	11.06	5.59	1090.5	1010.2
45.29	11.05	5.58	1089.8	1010.1
45.3	11.06	5.59	1089.8	1010.3
45.31	11.05	5.58	1089.7	1010.3
45.32	11.06	5.59	1090.8	1010.0
45.33	11.07	5.59	1090.3	1010.3
45.34	11.06	5.59	1090.5	1010.2
45.35	11.07	5.59	1090.4	1010.1
45.36	11.05	5.58	1090.4	1010.2
45.37	11.07	5.59	1090.3	1010.2
45.38	11.05	5.58	1090.1	1010.2
45.39	11.07	5.58	1089.8	1010.1
45.4	11.06	5.59	1089.8	1010.1
45.41	11.06	5.58	1089.8	1010.2
45.42	11.06	5.59	1090.0	1010.2
45.43	11.06	5.58	1089.4	1010.1
45.44	11.05	5.59	1089.9	1010.2
45.45	11.06	5.58	1089.6	1010.2
45.46	11.05	5.58	1089.7	1010.0
45.47	11.06	5.59	1089.5	1010.1
45.48	11.04	5.58	1089.7	1010.4
45.49	11.06	5.58	1089.3	1010.1
45.5	11.05	5.58	1089.9	1009.9
45.51	11.06	5.58	1089.4	1010.2
45.52	11.05	5.58	1089.1	1010.0
45.53	11.06	5.58	1088.8	1010.1
45.54	11.05	5.58	1090.0	1010.1
45.55	11.06	5.58	1089.5	1009.9
45.56	11.05	5.58	1089.8	1010.0
45.57	11.06	5.58	1089.6	1009.9
45.58	11.05	5.58	1089.4	1009.9
45.59	11.06	5.58	1089.5	1009.9
45.6	11.05	5.58	1089.3	1009.8
45.61	11.05	5.58	1089.4	1010.0
45.62	11.06	5.59	1089.2	1010.2
45.63	11.06	5.58	1089.0	1009.8
45.64	11.06	5.58	1089.2	1010.0
45.65	11.04	5.58	1088.9	1010.1
45.66	11.06	5.58	1088.8	1009.8
45.67	11.05	5.58	1088.8	1009.9
45.68	11.06	5.58	1089.6	1009.9
45.69	11.07	5.59	1088.6	1010.0
45.7	11.06	5.58	1089.0	1009.7
45.71	11.06	5.58	1088.4	1009.9
45.72	11.05	5.58	1089.4	1009.9
45.73	11.06	5.58	1088.6	1009.6
45.74	11.06	5.58	1089.0	1009.9
45.75	11.05	5.58	1088.4	1009.7
45.76	11.06	5.58	1089.1	1009.8
45.77	11.05	5.58	1088.4	1009.6
45.78	11.06	5.58	1089.0	1009.8
45.79	11.05	5.58	1088.1	1009.6
45.8	11.06	5.58	1088.6	1009.8
45.81	11.06	5.58	1088.2	1009.8
45.82	11.06	5.58	1088.5	1009.5
45.83	11.05	5.58	1088.3	1009.4
45.84	11.06	5.58	1088.4	1009.7
45.85	11.06	5.58	1088.2	1009.6
45.86	11.07	5.58	1088.5	1009.7
45.87	11.06	5.58	1088.2	1009.6
45.88	11.06	5.58	1088.7	1009.6
45.89	11.06	5.58	1088.0	1009.5
45.9	11.06	5.58	1088.6	1009.6
45.91	11.06	5.58	1088.0	1009.8
45.92	11.06	5.58	1088.6	1009.9
45.93	11.05	5.58	1087.9	1009.3
45.94	11.07	5.59	1088.3	1009.6
45.95	11.05	5.58	1088.2	1009.4
45.96	11.05	5.58	1088.3	1009.4
45.97	11.05	5.58	1088.4	1009.7
45.98	11.06	5.58	1087.7	1009.5
45.99	11.06	5.58	1088.4	1009.7
46.0	11.06	5.58	1088.5	1009.5
46.01	11.06	5.58	1088.0	1009.4
46.02	11.05	5.58	1088.3	1009.7
46.03	11.05	5.58	1088.0	1009.4
46.04	11.06	5.58	1089.0	1009.6
46.05	11.06	5.58	1088.6	1009.6
46.06	11.05	5.58	1089.0	1009.6
46.07	11.06	5.58	1088.2	1009.5
46.08	11.05	5.58	1088.6	1009.6
46.09	11.07	5.58	1088.2	1009.7
46.1	11.05	5.58	1087.9	1009.6
46.11	11.06	5.58	1087.9	1009.6
46.12	11.06	5.58	1088.0	1009.7
46.13	11.07	5.58	1088.6	1009.6
46.14	11.06	5.58	1088.7	1009.4
46.15	11.06	5.58	1088.2	1009.4
46.16	11.06	5.58	1087.9	1009.5
46.17	11.06	5.58	1088.3	1009.4
46.18	11.07	5.58	1088.7	1009.6
46.19	11.05	5.58	1088.2	1009.1
46.2	11.05	5.58	1088.2	1009.4
46.21	11.05	5.57	1088.0	1009.4
46.22	11.05	5.58	1088.1	1009.4
46.23	11.06	5.58	1087.8	1009.2
46.24	11.07	5.58	1087.9	1009.3
46.25	11.06	5.58	1087.6	1009.4
46.26	11.05	5.58	1088.1	1009.4
46.27	11.07	5.58	1088.0	1009.2
46.28	11.05	5.58	1088.1	1009.4
46.29	11.06	5.58	1087.5	1009.2
46.3	11.06	5.58	1087.9	1009.3
46.31	11.05	5.58	1088.0	1009.5
46.32	11.06	5.58	1088.0	1009.2
46.33	11.06	5.58	1087.7	1009.4
46.34	11.06	5.58	1087.7	1009.4
46.35	11.06	5.58	1087.8	1009.2
46.36	11.06	5.57	1088.2	1009.3
46.37	11.05	5.58	1087.6	1009.3
46.38	11.07	5.58	1087.3	1009.6
46.39	11.06	5.58	1087.5	1009.3
46.4	11.07	5.58	1088.0	1009.1
46.41	11.06	5.58	1087.6	1009.2
46.42	11.06	5.58	1087.8	1009.4
46.43	11.06	5.58	1087.1	1009.1
46.44	11.06	5.58	1087.6	1009.3
46.45	11.06	5.58	1087.5	1009.2
46.46	11.07	5.58	1087.6	1009.0
46.47	11.05	5.58	1086.7	1009.0
46.48	11.06	5.58	1087.4	1009.5
46.49	11.05	5.58	1087.9	1009.0
46.5	11.06	5.58	1087.6	1008.9
46.51	11.05	5.58	1087.3	1009.2
46.52	11.06	5.58	1087.0	1009.1
46.53	11.05	5.57	1087.6	1009.0
46.54	11.05	5.57	1087.5	1008.9
46.55	11.06	5.58	1087.2	1009.2
46.56	11.06	5.58	1087.3	1009.2
46.57	11.05	5.58	1087.3	1009.0
46.58	11.07	5.58	1087.4	1009.0
46.59	11.05	5.57	1087.2	1009.1
46.6	11.06	5.58	1087.4	1009.1
46.61	11.06	5.57	1086.2	1009.0
46.62	11.05	5.57	1087.2	1008.9
46.63	11.05	5.57	1087.2	1009.2
46.64	11.06	5.58	1087.1	1009.0
46.65	11.06	5.58	1086.7	1009.0
46.66	11.07	5.58	1086.8	1009.0
46.67	11.05	5.58	1087.1	1009.1
46.68	11.06	5.57	1087.2	1009.1
46.69	11.07	5.58	1086.6	1009.0
46.7	11.06	5.58	1086.3	1009.0
46.71	11.06	5.57	1086.4	1009.0
46.72	11.06	5.58	1086.5	1009.0
46.73	11.06	5.58	1086.2	1009.1
46.74	11.06	5.58	1086.9	1008.9
46.75	11.06	5.58	1086.0	1008.8
46.76	11.05	5.57	1087.1	1008.9
46.77	11.07	5.58	1086.9	1008.9
46.78	11.05	5.57	1087.1	1009.0
46.79	11.07	5.57	1086.4	1008.7
46.8	11.06	5.57	1087.2	1008.8
46.81	11.06	5.58	1086.8	1009.0
46.82	11.06	5.58	1086.8	1008.7
46.83	11.06	5.57	1086.8	1008.8
46.84	11.06	5.58	1086.5	1008.7
46.85	11.05	5.57	1086.4	1008.7
46.86	11.05	5.57	1086.0	1008.8
46.87	11.07	5.58	1085.5	1008.7
46.88	11.05	5.57	1085.5	1008.7
46.89	11.06	5.57	1085.9	1008.6
46.9	11.06	5.58	1086.9	1008.6
46.91	11.07	5.57	1085.7	1008.7
46.92	11.06	5.58	1086.9	1008.7
46.93	11.07	5.58	1085.2	1008.6
46.94	11.05	5.57	1086.5	1008.7
46.95	11.07	5.58	1085.3	1008.8
46.96	11.05	5.57	1085.7	1008.6
46.97	11.05	5.57	1085.1	1008.8
46.98	11.05	5.57	1084.9	1008.7
46.99	11.05	5.57	1085.8	1008.6
47.0	11.06	5.58	1085.6	1008.7
47.01	11.06	5.57	1085.1	1008.7
47.02	11.05	5.57	1085.1	1008.6
47.03	11.06	5.57	1085.2	1008.9
47.04	11.07	5.58	1085.7	1008.7
47.05	11.05	5.57	1085.2	1008.6
47.06	11.06	5.58	1085.5	1008.7
47.07	11.06	5.57	1085.0	1008.6
47.08	11.05	5.57	1086.0	1008.7
47.09	11.04	5.57	1085.2	1008.4
47.1	11.06	5.57	1085.6	1008.8
47.11	11.06	5.57	1085.2	1008.7
47.12	11.06	5.57	1085.5	1008.6
47.13	11.06	5.57	1085.1	1008.6
47.14	11.05	5.57	1085.5	1008.6
47.15	11.06	5.57	1085.2	1008.4
47.16	11.08	5.58	1085.1	1008.6
47.17	11.06	5.57	1085.5	1008.4
47.18	11.06	5.57	1085.6	1008.6
47.19	11.06	5.57	1085.4	1008.4
47.2	11.07	5.57	1085.2	1008.5
47.21	11.06	5.57	1085.2	1008.3
47.22	11.06	5.57	1085.6	1008.4
47.23	11.06	5.57	1085.2	1008.3
47.24	11.07	5.57	1085.7	1008.5
47.25	11.06	5.57	1084.8	1008.4
47.26	11.06	5.57	1085.3	1008.7
47.27	11.05	5.57	1085.1	1008.0
47.28	11.06	5.57	1085.3	1008.4
47.29	11.06	5.57	1085.2	1008.3
47.3	11.06	5.57	1085.0	1008.2
47.31	11.05	5.57	1085.0	1008.2
47.32	11.05	5.57	1085.2	1008.2
47.33	11.05	5.57	1085.4	1008.0
47.34	11.07	5.58	1085.1	1008.1
47.35	11.06	5.57	1085.0	1008.2
47.36	11.07	5.58	1085.4	1008.3
47.37	11.06	5.57	1085.1	1008.2
47.38	11.06	5.57	1085.5	1008.1
47.39	11.06	5.57	1084.3	1008.2
47.4	11.05	5.57	1084.6	1008.2
47.41	11.06	5.57	1085.4	1008.2
47.42	11.05	5.57	1085.1	1008.1
47.43	11.07	5.57	1084.8	1008.0
47.44	11.06	5.57	1084.8	1008.2
47.45	11.06	5.57	1084.7	1008.2
47.46	11.06	5.57	1084.9	1008.2
47.47	11.06	5.57	1084.7	1008.2
47.48	11.05	5.57	1084.4	1008.2
47.49	11.06	5.57	1084.6	1008.1
47.5	11.05	5.57	1084.6	1008.2
47.51	11.05	5.56	1084.2	1008.1
47.52	11.07	5.57	1084.0	1008.2
47.53	11.06	5.57	1083.8	1008.1
47.54	11.05	5.57	1084.3	1008.2
47.55	11.07	5.57	1084.0	1008.3
47.56	11.05	5.57	1085.2	1008.0
47.57	11.06	5.57	1084.2	1008.0
47.58	11.06	5.57	1085.1	1008.2
47.59	11.06	5.57	1084.8	1008.0
47.6	11.05	5.57	1084.9	1008.2
47.61	11.05	5.57	1084.6	1008.2
47.62	11.07	5.57	1084.1	1008.2
47.63	11.07	5.57	1084.6	1008.0
47.64	11.05	5.57	1085.0	1008.3
47.65	11.06	5.57	1084.3	1008.0
47.66	11.07	5.57	1084.3	1007.9
47.67	11.06	5.57	1084.1	1007.9
47.68	11.06	5.57	1084.6	1007.9
47.69	11.07	5.57	1084.3	1007.9
47.7	11.06	5.57	1084.6	1008.0
47.71	11.05	5.57	1083.7	1007.8
47.72	11.06	5.57	1084.2	1008.1
47.73	11.06	5.57	1084.0	1008.0
47.74	11.06	5.57	1084.5	1007.8
47.75	11.05	5.57	1084.2	1008.0
47.76	11.06	5.57	1084.2	1008.1
47.77	11.05	5.57	1084.4	1007.7
47.78	11.05	5.57	1084.4	1008.0
47.79	11.05	5.57	1084.7	1007.7
47.8	11.06	5.57	1084.0	1008.1
47.81	11.05	5.57	1084.1	1007.8
47.82	11.06	5.57	1084.0	1007.6
47.83	11.06	5.57	1083.8	1007.8
47.84	11.04	5.56	1084.6	1008.0
47.85	11.06	5.57	1083.3	1007.7
47.86	11.06	5.57	1084.0	1008.0
47.87	11.05	5.56	1083.5	1007.9
47.88	11.06	5.57	1083.8	1007.9
47.89	11.05	5.56	1083.0	1007.7
47.9	11.06	5.57	1083.5	1008.1
47.91	11.07	5.57	1083.5	1007.9
47.92	11.06	5.57	1083.0	1008.0
47.93	11.06	5.57	1083.2	1008.0
47.94	11.06	5.57	1082.7	1007.8
47.95	11.04	5.56	1083.6	1007.8
47.96	11.07	5.57	1084.0	1007.6
47.97	11.05	5.56	1083.7	1007.7
47.98	11.06	5.57	1083.2	1007.7
47.99	11.05	5.57	1083.1	1007.5
48.0	11.07	5.57	1083.6	1007.8
48.01	11.06	5.57	1083.4	1007.8
48.02	11.07	5.57	1084.0	1007.9
48.03	11.06	5.57	1082.8	1007.4
48.04	11.06	5.57	1083.4	1007.7
48.05	11.06	5.57	1083.1	1007.6
48.06	11.06	5.57	1083.4	1007.6
48.07	11.06	5.57	1083.5	1007.7
48.08	11.05	5.57	1083.3	1007.8
48.09	11.06	5.57	1083.6	1007.8
48.1	11.05	5.57	1083.1	1007.5
48.11	11.07	5.57	1083.0	1007.6
48.12	11.06	5.57	1083.0	1007.6
48.13	11.05	5.57	1083.0	1007.6
48.14	11.06	5.57	1083.6	1007.4
48.15	11.05	5.56	1083.3	1007.6
48.16	11.05	5.57	1083.0	1007.5
48.17	11.06	5.57	1083.1	1007.6
48.18	11.06	5.57	1083.0	1007.6
48.19	11.07	5.57	1083.0	1007.6
48.2	11.05	5.56	1082.9	1007.5
48.21	11.07	5.57	1082.7	1007.7
48.22	11.05	5.56	1082.8	1007.7
48.23	11.05	5.56	1082.8	1007.6
48.24	11.06	5.57	1083.3	1007.6
48.25	11.06	5.56	1082.5	1007.5
48.26	11.06	5.56	1082.4	1007.6
48.27	11.06	5.57	1082.4	1007.3
48.28	11.06	5.57	1082.6	1007.5
48.29	11.06	5.57	1082.6	1007.5
48.3	11.07	5.57	1083.2	1007.2
48.31	11.06	5.56	1082.5	1007.5
48.32	11.05	5.56	1083.3	1007.3
48.33	11.06	5.57	1082.6	1007.3
48.34	11.05	5.56	1083.0	1007.5
48.35	11.06	5.56	1083.3	1007.4
48.36	11.05	5.56	1082.3	1007.6
48.37	11.07	5.57	1082.6	1007.3
48.38	11.06	5.56	1082.6	1007.4
48.39	11.06	5.57	1082.3	1007.3
48.4	11.07	5.57	1082.6	1007.5
48.41	11.06	5.56	1082.3	1007.5
48.42	11.06	5.56	1083.0	1007.4
48.43	11.06	5.56	1082.4	1007.3
48.44	11.06	5.56	1082.6	1007.4
48.45	11.07	5.57	1082.2	1007.2
48.46	11.06	5.56	1082.3	1007.4
48.47	11.05	5.56	1082.5	1007.4
48.48	11.07	5.56	1082.4	1007.4
48.49	11.06	5.56	1082.5	1007.2
48.5	11.06	5.57	1082.3	1007.5
48.51	11.05	5.56	1082.2	1007.4
48.52	11.06	5.56	1082.2	1007.2
48.53	11.06	5.57	1082.1	1007.4
48.54	11.05	5.56	1081.8	1007.4
48.55	11.07	5.57	1081.7	1007.3
48.56	11.06	5.56	1082.1	1007.4
48.57	11.05	5.56	1081.6	1007.3
48.58	11.06	5.56	1082.1	1007.3
48.59	11.04	5.56	1081.5	1007.4
48.6	11.05	5.56	1082.0	1007.3
48.61	11.05	5.56	1082.2	1007.2
48.62	11.06	5.56	1082.2	1007.2
48.63	11.07	5.57	1081.8	1007.5
48.64	11.06	5.56	1081.6	1007.2
48.65	11.05	5.56	1081.9	1007.1
48.66	11.06	5.56	1081.8	1007.2
48.67	11.05	5.56	1081.9	1007.2
48.68	11.06	5.56	1081.7	1007.1
48.69	11.05	5.56	1081.6	1007.2
48.7	11.06	5.56	1082.0	1007.2
48.71	11.06	5.56	1081.4	1007.1
48.72	11.05	5.56	1081.3	1006.9
48.73	11.06	5.56	1080.9	1007.2
48.74	11.06	5.56	1082.0	1007.1
48.75	11.05	5.56	1081.4	1007.0
48.76	11.06	5.56	1081.9	1006.9
48.77	11.05	5.56	1081.4	1007.4
48.78	11.06	5.56	1081.4	1007.0
48.79	11.06	5.56	1081.6	1007.1
48.8	11.06	5.56	1081.7	1007.0
48.81	11.06	5.56	1081.4	1007.2
48.82	11.07	5.56	1081.4	1006.8
48.83	11.06	5.56	1081.1	1006.8
48.84	11.06	5.56	1081.4	1007.0
48.85	11.06	5.56	1081.3	1007.1
48.86	11.06	5.56	1081.1	1006.9
48.87	11.06	5.56	1080.4	1007.0
48.88	11.06	5.56	1080.9	1007.0
48.89	11.07	5.56	1080.6	1007.0
48.9	11.05	5.56	1081.1	1006.9
48.91	11.06	5.56	1081.1	1006.9
48.92	11.06	5.56	1081.2	1007.0
48.93	11.05	5.56	1081.0	1006.7
48.94	11.06	5.57	1080.8	1006.9
48.95	11.06	5.56	1080.8	1006.8
48.96	11.05	5.56	1081.3	1007.0
48.97	11.06	5.56	1080.6	1006.6
48.98	11.06	5.56	1080.8	1006.8
48.99	11.06	5.56	1080.4	1006.7
49.0	11.05	5.56	1080.9	1006.7
49.01	11.06	5.56	1080.6	1006.7
49.02	11.07	5.57	1081.0	1006.8
49.03	11.06	5.56	1081.0	1006.6
49.04	11.06	5.57	1080.9	1006.9
49.05	11.05	5.56	1081.0	1006.6
49.06	11.06	5.56	1080.6	1006.6
49.07	11.06	5.56	1080.7	1006.7
49.08	11.05	5.56	1080.8	1006.9
49.09	11.05	5.56	1081.0	1006.8
49.1	11.06	5.56	1080.9	1006.7
49.11	11.06	5.56	1080.6	1006.6
49.12	11.06	5.56	1080.7	1006.7
49.13	11.05	5.56	1080.4	1006.7
49.14	11.05	5.56	1080.6	1006.7
49.15	11.06	5.56	1080.2	1006.7
49.16	11.05	5.56	1080.8	1006.8
49.17	11.06	5.56	1080.3	1006.5
49.18	11.07	5.57	1080.9	1006.6
49.19	11.06	5.56	1080.1	1006.8
49.2	11.07	5.56	1080.6	1006.5
49.21	11.06	5.56	1080.7	1006.6
49.22	11.06	5.56	1080.6	1006.6
49.23	11.06	5.56	1080.4	1006.6
49.24	11.05	5.55	1080.1	1006.4
49.25	11.05	5.56	1080.3	1006.6
49.26	11.06	5.56	1080.3	1006.4
49.27	11.06	5.56	1080.3	1006.6
49.28	11.07	5.56	1080.2	1006.5
49.29	11.05	5.56	1080.1	1006.3
49.3	11.06	5.56	1080.7	1006.4
49.31	11.05	5.56	1080.4	1006.4
49.32	11.05	5.56	1080.7	1006.3
49.33	11.04	5.56	1079.7	1006.4
49.34	11.06	5.56	1079.8	1006.7
49.35	11.05	5.56	1080.5	1006.4
49.36	11.06	5.56	1080.3	1006.3
49.37	11.04	5.55	1080.4	1006.4
49.38	11.07	5.56	1079.5	1006.6
49.39	11.06	5.56	1080.3	1006.5
49.4	11.05	5.56	1080.1	1006.5
49.41	11.06	5.56	1080.0	1006.4
49.42	11.06	5.56	1080.2	1006.6
49.43	11.05	5.56	1079.9	1006.7
49.44	11.06	5.56	1080.1	1006.4
49.45	11.06	5.56	1079.8	1006.5
49.46	11.06	5.56	1079.8	1006.5
49.47	11.05	5.55	1079.5	1006.7
49.48	11.06	5.56	1079.9	1006.5
49.49	11.05	5.56	1080.2	1006.5
49.5	11.05	5.55	1080.0	1006.4
49.51	11.06	5.56	1080.3	1006.8
49.52	11.05	5.56	1080.1	1006.5
49.53	11.06	5.56	1080.3	1006.4
49.54	11.06	5.56	1080.4	1006.6
49.55	11.05	5.56	1079.8	1006.4
49.56	11.06	5.56	1079.9	1006.4
49.57	11.06	5.56	1079.5	1006.6
49.58	11.06	5.56	1080.2	1006.5
49.59	11.07	5.56	1080.0	1006.3
49.6	11.05	5.55	1080.2	1006.5
49.61	11.06	5.56	1079.8	1006.5
49.62	11.06	5.56	1079.8	1006.5
49.63	11.05	5.56	1080.0	1006.3
49.64	11.06	5.56	1079.7	1006.2
49.65	11.06	5.56	1079.9	1006.5
49.66	11.06	5.56	1079.4	1006.4
49.67	11.05	5.56	1079.7	1006.4
49.68	11.05	5.56	1079.8	1006.6
49.69	11.06	5.56	1079.6	1006.4
49.7	11.05	5.56	1079.5	1006.4
49.71	11.05	5.55	1078.6	1006.4
49.72	11.07	5.56	1079.3	1006.4
49.73	11.06	5.56	1078.9	1006.5
49.74	11.05	5.56	1079.3	1006.1
49.75	11.06	5.56	1079.8	1006.2
49.76	11.05	5.55	1079.2	1006.2
49.77	11.07	5.56	1079.9	1006.3
49.78	11.05	5.55	1080.0	1006.1
49.79	11.06	5.56	1079.2	1006.2
49.8	11.06	5.56	1078.9	1006.3
49.81	11.05	5.56	1079.4	1006.2
49.82	11.05	5.56	1079.6	1006.3
49.83	11.05	5.55	1079.3	1006.4
49.84	11.06	5.56	1079.9	1006.1
49.85	11.06	5.56	1079.1	1006.5
49.86	11.06	5.55	1079.4	1006.2
49.87	11.06	5.56	1079.3	1006.3
49.88	11.06	5.56	1079.4	1006.2
49.89	11.06	5.56	1078.6	1006.2
49.9	11.06	5.56	1079.3	1006.1
49.91	11.06	5.55	1079.3	1006.2
49.92	11.07	5.56	1079.0	1006.1
49.93	11.05	5.55	1079.1	1006.1
49.94	11.06	5.55	1078.9	1006.0
49.95	11.06	5.56	1079.5	1006.0
49.96	11.06	5.56	1079.7	1006.1
49.97	11.06	5.56	1079.1	1006.2
49.98	11.07	5.56	1079.2	1006.0
49.99	11.06	5.56	1078.9	1006.2
50.0	11.06	5.56	1079.1	1006.1
50.01	11.05	5.56	1078.9	1006.0
50.02	11.06	5.56	1079.3	1006.3
50.03	11.07	5.56	1078.9	1006.1
50.04	11.06	5.56	1079.0	1005.9
50.05	11.05	5.56	1079.4	1005.9
50.06	11.07	5.56	1079.1	1005.9
50.07	11.06	5.56	1078.8	1005.8
50.08	11.06	5.56	1079.2	1005.8
50.09	11.05	5.55	1079.0	1005.8
50.1	11.07	5.56	1079.0	1005.9
50.11	11.05	5.55	1078.5	1005.8
50.12	11.07	5.56	1079.0	1006.1
50.13	11.06	5.55	1079.0	1006.0
50.14	11.06	5.56	1079.1	1005.7
50.15	11.05	5.55	1078.8	1005.9
50.16	11.06	5.56	1078.5	1005.6
50.17	11.06	5.55	1078.4	1005.8
50.18	11.06	5.56	1078.8	1006.0
50.19	11.06	5.55	1078.6	1005.9
50.2	11.07	5.56	1078.8	1006.1
50.21	11.05	5.55	1078.5	1005.9
50.22	11.06	5.56	1078.5	1006.0
50.23	11.06	5.55	1078.6	1006.0
50.24	11.05	5.55	1078.6	1006.0
50.25	11.06	5.55	1078.5	1005.9
50.26	11.06	5.56	1078.1	1005.9
50.27	11.06	5.55	1078.4	1005.9
50.28	11.06	5.55	1078.5	1005.7
50.29	11.06	5.56	1078.3	1005.8
50.3	11.05	5.55	1078.4	1005.9
50.31	11.07	5.55	1077.9	1005.7
50.32	11.05	5.55	1078.5	1005.8
50.33	11.06	5.55	1078.4	1005.8
50.34	11.06	5.56	1078.4	1005.9
50.35	11.06	5.55	1077.9	1005.9
50.36	11.06	5.56	1078.7	1006.0
50.37	11.06	5.55	1078.7	1005.8
50.38	11.05	5.55	1078.7	1005.8
50.39	11.06	5.55	1078.1	1005.5
50.4	11.06	5.55	1078.4	1005.9
50.41	11.05	5.55	1078.5	1005.9
50.42	11.06	5.56	1078.4	1005.8
50.43	11.06	5.55	1078.0	1005.9
50.44	11.06	5.56	1078.1	1005.8
50.45	11.05	5.55	1078.4	1005.7
50.46	11.04	5.55	1078.5	1005.6
50.47	11.06	5.55	1078.1	1005.8
50.48	11.05	5.55	1078.0	1005.9
50.49	11.06	5.56	1077.8	1005.7
50.5	11.06	5.56	1078.2	1005.5
50.51	11.07	5.55	1077.8	1005.7
50.52	11.06	5.55	1077.8	1005.7
50.53	11.05	5.55	1077.4	1005.6
50.54	11.05	5.55	1077.7	1005.8
50.55	11.07	5.55	1077.5	1005.6
50.56	11.06	5.55	1078.3	1005.5
50.57	11.06	5.56	1077.9	1005.5
50.58	11.06	5.55	1077.4	1005.7
50.59	11.05	5.55	1077.6	1005.7
50.6	11.07	5.55	1077.8	1005.3
50.61	11.05	5.55	1078.0	1005.4
50.62	11.05	5.55	1077.2	1005.4
50.63	11.06	5.55	1077.8	1005.7
50.64	11.06	5.55	1078.1	1005.5
50.65	11.06	5.56	1077.3	1005.6
50.66	11.05	5.55	1077.6	1005.6
50.67	11.06	5.55	1077.1	1005.7
50.68	11.06	5.55	1077.5	1005.4
50.69	11.05	5.55	1077.3	1005.5
50.7	11.06	5.55	1077.6	1005.6
50.71	11.05	5.55	1077.3	1005.8
50.72	11.06	5.55	1077.3	1005.8
50.73	11.06	5.56	1077.5	1005.8
50.74	11.07	5.55	1077.3	1005.6
50.75	11.05	5.55	1077.4	1005.7
50.76	11.06	5.55	1077.1	1005.4
50.77	11.05	5.55	1077.2	1005.5
50.78	11.06	5.55	1077.4	1005.5
50.79	11.05	5.55	1077.1	1005.7
50.8	11.06	5.55	1077.4	1005.4
50.81	11.06	5.55	1076.6	1005.6
50.82	11.07	5.55	1077.4	1005.5
50.83	11.06	5.55	1077.1	1005.7
50.84	11.06	5.55	1077.3	1005.6
50.85	11.05	5.55	1076.9	1005.5
50.86	11.07	5.55	1076.6	1005.4
50.87	11.05	5.55	1076.7	1005.6
50.88	11.07	5.55	1076.7	1005.5
50.89	11.06	5.55	1077.3	1005.6
50.9	11.05	5.55	1076.9	1005.8
50.91	11.06	5.55	1077.0	1005.5
50.92	11.05	5.55	1077.0	1005.6
50.93	11.06	5.55	1076.6	1005.7
50.94	11.07	5.55	1076.3	1005.5
50.95	11.06	5.55	1076.8	1005.5
50.96	11.07	5.56	1077.0	1005.7
50.97	11.06	5.55	1076.9	1005.5
50.98	11.05	5.55	1076.9	1005.6
50.99	11.07	5.55	1076.5	1005.2
51.0	11.05	5.55	1076.9	1005.5
51.01	11.07	5.55	1076.9	1005.4
51.02	11.06	5.55	1077.1	1005.4
51.03	11.08	5.55	1076.6	1005.0
51.04	11.06	5.55	1076.6	1005.4
51.05	11.07	5.55	1076.8	1005.2
51.06	11.06	5.55	1076.8	1005.5
51.07	11.06	5.55	1077.1	1005.3
51.08	11.05	5.55	1076.8	1005.2
51.09	11.07	5.55	1076.5	1005.3
51.1	11.05	5.55	1076.8	1005.4
51.11	11.06	5.55	1076.6	1005.2
51.12	11.05	5.55	1076.8	1005.4
51.13	11.05	5.55	1076.3	1005.2
51.14	11.05	5.55	1076.7	1005.3
51.15	11.06	5.55	1076.8	1005.2
51.16	11.05	5.55	1076.8	1005.3
51.17	11.06	5.55	1076.3	1005.3
51.18	11.06	5.55	1076.4	1005.2
51.19	11.06	5.55	1076.8	1005.2
51.2	11.05	5.55	1076.6	1005.3
51.21	11.05	5.55	1076.2	1005.1
51.22	11.07	5.55	1076.0	1005.1
51.23	11.06	5.55	1076.2	1005.4
51.24	11.06	5.55	1076.4	1005.4
51.25	11.06	5.55	1076.4	1005.2
51.26	11.06	5.55	1076.5	1005.1
51.27	11.06	5.55	1076.2	1005.2
51.28	11.05	5.54	1076.4	1005.1
51.29	11.06	5.55	1076.4	1005.2
51.3	11.07	5.55	1076.4	1005.2
51.31	11.06	5.55	1076.4	1004.9
51.32	11.06	5.55	1076.2	1004.9
51.33	11.06	5.55	1076.3	1005.0
51.34	11.06	5.55	1076.4	1005.2
51.35	11.05	5.55	1076.2	1005.2
51.36	11.05	5.54	1076.3	1004.9
51.37	11.07	5.55	1076.1	1005.0
51.38	11.07	5.55	1076.4	1005.2
51.39	11.05	5.55	1076.1	1005.2
51.4	11.06	5.55	1076.5	1005.1
51.41	11.05	5.55	1076.1	1005.2
51.42	11.06	5.55	1076.2	1005.0
51.43	11.05	5.55	1076.5	1004.8
51.44	11.07	5.55	1076.0	1005.0
51.45	11.06	5.55	1076.1	1005.1
51.46	11.06	5.55	1075.5	1005.0
51.47	11.05	5.55	1076.1	1005.0
51.48	11.06	5.55	1076.1	1005.0
51.49	11.06	5.55	1076.0	1004.9
51.5	11.07	5.55	1076.0	1004.8
51.51	11.05	5.55	1075.6	1005.0
51.52	11.06	5.55	1076.2	1004.8
51.53	11.06	5.55	1076.0	1005.0
51.54	11.07	5.55	1076.4	1004.8
51.55	11.05	5.55	1075.7	1004.6
51.56	11.07	5.55	1076.0	1004.9
51.57	11.06	5.55	1075.9	1005.0
51.58	11.06	5.55	1076.2	1004.8
51.59	11.06	5.55	1075.6	1004.8
51.6	11.05	5.54	1075.8	1004.7
51.61	11.06	5.55	1076.0	1004.8
51.62	11.05	5.55	1075.8	1005.0
51.63	11.06	5.55	1075.6	1004.9
51.64	11.06	5.55	1075.5	1004.8
51.65	11.06	5.55	1075.5	1004.8
51.66	11.06	5.55	1075.8	1004.7
51.67	11.06	5.55	1075.8	1004.8
51.68	11.05	5.54	1076.0	1004.7
51.69	11.06	5.55	1075.3	1004.8
51.7	11.05	5.55	1075.4	1004.7
51.71	11.06	5.55	1075.7	1004.8
51.72	11.06	5.55	1075.8	1004.7
51.73	11.06	5.55	1075.7	1004.7
51.74	11.05	5.55	1075.2	1004.7
51.75	11.06	5.54	1075.8	1004.9
51.76	11.06	5.55	1075.5	1004.6
51.77	11.07	5.55	1075.6	1004.6
51.78	11.06	5.55	1075.4	1004.8
51.79	11.07	5.55	1075.3	1004.7
51.8	11.06	5.55	1075.4	1004.6
51.81	11.06	5.54	1075.3	1004.8
51.82	11.06	5.55	1074.4	1004.6
51.83	11.06	5.55	1074.8	1004.7
51.84	11.06	5.55	1075.8	1004.7
51.85	11.07	5.55	1075.4	1004.8
51.86	11.06	5.55	1075.4	1004.6
51.87	11.06	5.55	1075.0	1004.7
51.88	11.05	5.55	1075.4	1004.8
51.89	11.07	5.55	1074.8	1004.6
51.9	11.06	5.55	1075.4	1004.9
51.91	11.06	5.54	1075.8	1004.6
51.92	11.05	5.55	1074.9	1004.7
51.93	11.06	5.55	1075.1	1004.7
51.94	11.05	5.54	1075.6	1004.7
51.95	11.06	5.55	1075.0	1004.4
51.96	11.05	5.55	1075.3	1004.8
51.97	11.06	5.55	1074.5	1004.8
51.98	11.05	5.54	1075.3	1004.6
51.99	11.06	5.55	1075.3	1004.7
52.0	11.06	5.55	1074.8	1004.6
52.01	11.06	5.55	1074.4	1004.7
52.02	11.07	5.55	1075.3	1004.5
52.03	11.07	5.55	1075.2	1004.7
52.04	11.06	5.55	1075.2	1004.4
52.05	11.06	5.55	1074.7	1004.5
52.06	11.05	5.54	1074.4	1004.8
52.07	11.05	5.54	1074.5	1004.5
52.08	11.06	5.54	1074.9	1004.4
52.09	11.07	5.55	1074.9	1004.6
52.1	11.07	5.55	1074.4	1004.6
52.11	11.06	5.55	1074.6	1004.3
52.12	11.06	5.54	1075.0	1004.6
52.13	11.05	5.55	1075.0	1004.4
52.14	11.06	5.55	1074.9	1004.5
52.15	11.05	5.55	1074.8	1004.5
52.16	11.06	5.55	1075.1	1004.6
52.17	11.06	5.55	1074.7	1004.6
52.18	11.06	5.54	1074.8	1004.4
52.19	11.05	5.54	1074.4	1004.4
52.2	11.06	5.55	1074.1	1004.6
52.21	11.04	5.54	1074.3	1004.1
52.22	11.06	5.54	1074.8	1004.6
52.23	11.06	5.55	1074.2	1004.4
52.24	11.07	5.55	1074.2	1004.2
52.25	11.05	5.55	1074.6	1004.4
52.26	11.06	5.54	1074.7	1004.5
52.27	11.04	5.54	1074.2	1004.5
52.28	11.06	5.54	1073.6	1004.3
52.29	11.06	5.54	1073.6	1004.6
52.3	11.06	5.55	1074.3	1004.3
52.31	11.06	5.55	1074.1	1004.3
52.32	11.05	5.54	1074.6	1004.6
52.33	11.05	5.54	1073.9	1004.4
52.34	11.06	5.55	1074.5	1004.2
52.35	11.06	5.54	1074.2	1004.5
52.36	11.06	5.55	1074.1	1004.5
52.37	11.05	5.54	1073.9	1004.4
52.38	11.05	5.54	1073.7	1004.4
52.39	11.07	5.55	1073.9	1004.5
52.4	11.06	5.55	1074.2	1004.5
52.41	11.07	5.55	1074.1	1004.3
52.42	11.06	5.54	1073.8	1004.3
52.43	11.05	5.54	1073.8	1004.5
52.44	11.05	5.54	1074.1	1004.2
52.45	11.06	5.54	1073.8	1004.2
52.46	11.06	5.55	1074.1	1004.5
52.47	11.07	5.55	1073.0	1004.1
52.48	11.05	5.54	1073.8	1004.1
52.49	11.07	5.55	1073.7	1004.2
52.5	11.05	5.54	1074.2	1003.9
52.51	11.06	5.54	1073.3	1004.1
52.52	11.06	5.55	1073.7	1004.2
52.53	11.06	5.54	1073.8	1004.2
52.54	11.06	5.54	1073.8	1004.0
52.55	11.06	5.54	1074.1	1004.2
52.56	11.06	5.54	1073.5	1004.2
52.57	11.06	5.54	1073.6	1004.1
52.58	11.05	5.54	1073.1	1004.0
52.59	11.07	5.54	1073.6	1004.1
52.6	11.05	5.54	1073.8	1004.0
52.61	11.06	5.54	1073.6	1004.0
52.62	11.06	5.54	1074.0	1004.0
52.63	11.06	5.54	1073.8	1004.2
52.64	11.06	5.54	1074.0	1004.1
52.65	11.05	5.54	1073.5	1004.0
52.66	11.06	5.54	1074.0	1004.1
52.67	11.05	5.54	1073.6	1004.3
52.68	11.06	5.55	1073.8	1004.2
52.69	11.05	5.54	1073.4	1004.0
52.7	11.07	5.55	1073.2	1004.2
52.71	11.05	5.54	1073.3	1004.0
52.72	11.06	5.54	1073.4	1004.2
52.73	11.05	5.54	1073.4	1004.0
52.74	11.06	5.54	1073.3	1004.1
52.75	11.05	5.54	1073.6	1004.0
52.76	11.05	5.54	1074.0	1004.2
52.77	11.04	5.54	1073.5	1004.0
52.78	11.06	5.54	1073.6	1004.2
52.79	11.04	5.54	1073.3	1004.2
52.8	11.07	5.54	1073.4	1004.3
52.81	11.06	5.54	1073.4	1004.1
52.82	11.06	5.54	1073.5	1004.2
52.83	11.06	5.54	1073.0	1004.0
52.84	11.06	5.54	1073.1	1004.1
52.85	11.06	5.54	1073.3	1004.2
52.86	11.06	5.54	1072.9	1004.2
52.87	11.06	5.54	1073.1	1004.1
52.88	11.07	5.54	1073.0	1004.1
52.89	11.06	5.54	1072.9	1004.0
52.9	11.05	5.54	1073.4	1004.0
52.91	11.06	5.54	1073.4	1004.0
52.92	11.06	5.54	1073.6	1004.0
52.93	11.06	5.54	1072.9	1004.1
52.94	11.06	5.54	1073.6	1004.1
52.95	11.06	5.54	1073.2	1004.1
52.96	11.07	5.55	1073.2	1004.1
52.97	11.06	5.54	1072.8	1003.8
52.98	11.06	5.55	1073.2	1003.9
52.99	11.05	5.54	1073.3	1004.0
53.0	11.06	5.54	1072.8	1004.0
53.01	11.05	5.54	1072.9	1004.0
53.02	11.05	5.54	1073.0	1004.2
53.03	11.07	5.55	1073.0	1003.8
53.04	11.05	5.54	1073.2	1004.0
53.05	11.06	5.54	1072.8	1004.0
53.06	11.05	5.54	1072.9	1004.0
53.07	11.07	5.54	1072.9	1003.9
53.08	11.06	5.54	1073.0	1004.1
53.09	11.06	5.54	1072.5	1003.9
53.1	11.06	5.54	1072.8	1004.1
53.11	11.05	5.54	1072.6	1004.1
53.12	11.06	5.54	1072.7	1003.9
53.13	11.05	5.54	1072.4	1004.0
53.14	11.06	5.54	1073.2	1004.0
53.15	11.06	5.54	1072.1	1003.9
53.16	11.06	5.54	1072.7	1003.8
53.17	11.06	5.54	1072.6	1003.9
53.18	11.05	5.54	1072.6	1003.8
53.19	11.07	5.54	1072.1	1003.9
53.2	11.05	5.54	1072.7	1003.9
53.21	11.07	5.54	1072.6	1004.0
53.22	11.05	5.54	1072.8	1003.8
53.23	11.05	5.54	1072.5	1004.0
53.24	11.06	5.54	1072.6	1003.5
53.25	11.07	5.54	1072.9	1003.7
53.26	11.06	5.54	1072.5	1003.7
53.27	11.06	5.54	1072.4	1003.8
53.28	11.05	5.54	1072.4	1003.8
53.29	11.07	5.54	1072.3	1004.0
53.3	11.06	5.54	1072.6	1003.7
53.31	11.07	5.55	1072.1	1003.8
53.32	11.06	5.54	1072.0	1003.4
53.33	11.06	5.54	1071.9	1003.7
53.34	11.06	5.54	1072.4	1003.9
53.35	11.05	5.54	1072.3	1003.6
53.36	11.06	5.54	1072.3	1003.5
53.37	11.06	5.54	1071.9	1003.6
53.38	11.06	5.54	1072.2	1003.6
53.39	11.05	5.54	1072.4	1004.0
53.4	11.06	5.54	1071.8	1003.6
53.41	11.05	5.54	1072.0	1003.7
53.42	11.06	5.54	1071.2	1003.7
53.43	11.05	5.54	1071.8	1003.5
53.44	11.07	5.54	1071.9	1003.6
53.45	11.06	5.54	1072.0	1003.7
53.46	11.06	5.54	1072.1	1003.7
53.47	11.05	5.54	1071.9	1003.6
53.48	11.07	5.54	1071.8	1003.6
53.49	11.05	5.54	1072.0	1003.6
53.5	11.06	5.54	1072.2	1003.5
53.51	11.05	5.54	1071.5	1003.4
53.52	11.06	5.54	1071.9	1003.3
53.53	11.06	5.54	1071.8	1003.5
53.54	11.05	5.54	1071.9	1003.8
53.55	11.07	5.54	1071.8	1003.5
53.56	11.06	5.54	1071.6	1003.4
53.57	11.05	5.54	1072.2	1003.6
53.58	11.06	5.54	1072.0	1003.5
53.59	11.05	5.54	1072.0	1003.5
53.6	11.06	5.54	1071.5	1003.4
53.61	11.05	5.54	1071.6	1003.5
53.62	11.07	5.54	1071.8	1003.2
53.63	11.05	5.54	1071.9	1003.5
53.64	11.07	5.54	1072.1	1003.6
53.65	11.05	5.54	1071.3	1003.6
53.66	11.06	5.54	1071.3	1003.4
53.67	11.05	5.54	1071.4	1003.5
53.68	11.06	5.54	1071.3	1003.5
53.69	11.06	5.54	1070.9	1003.3
53.7	11.06	5.54	1071.0	1003.4
53.71	11.06	5.54	1071.5	1003.4
53.72	11.06	5.54	1071.2	1003.7
53.73	11.06	5.54	1071.6	1003.2
53.74	11.05	5.54	1071.3	1003.5
53.75	11.06	5.54	1071.1	1003.4
53.76	11.05	5.54	1071.1	1003.2
53.77	11.05	5.54	1071.2	1003.4
53.78	11.06	5.54	1070.4	1003.2
53.79	11.07	5.54	1070.9	1003.2
53.8	11.06	5.54	1071.2	1003.4
53.81	11.07	5.54	1071.2	1003.4
53.82	11.05	5.54	1071.0	1003.4
53.83	11.06	5.54	1070.8	1003.4
53.84	11.07	5.54	1071.1	1003.5
53.85	11.05	5.54	1071.4	1003.3
53.86	11.05	5.54	1071.2	1003.1
53.87	11.06	5.54	1070.6	1003.4
53.88	11.05	5.54	1071.1	1003.3
53.89	11.06	5.54	1071.6	1003.1
53.9	11.06	5.54	1071.5	1003.2
53.91	11.06	5.54	1072.0	1003.2
53.92	11.05	5.54	1071.6	1003.4
53.93	11.06	5.54	1071.6	1003.2
53.94	11.06	5.54	1071.4	1003.2
53.95	11.06	5.54	1071.5	1003.2
53.96	11.05	5.54	1071.3	1003.2
53.97	11.07	5.54	1071.4	1003.4
53.98	11.05	5.54	1071.4	1003.1
53.99	11.06	5.54	1071.1	1003.4
54.0	11.05	5.54	1071.4	1003.4
54.01	11.06	5.54	1070.7	1003.1
54.02	11.05	5.54	1071.1	1003.4
54.03	11.06	5.54	1070.7	1003.4
54.04	11.06	5.54	1070.7	1003.1
54.05	11.06	5.54	1070.4	1003.3
54.06	11.06	5.54	1071.0	1003.4
54.07	11.06	5.54	1070.9	1003.2
54.08	11.06	5.54	1070.4	1003.2
54.09	11.07	5.54	1071.4	1003.2
54.1	11.06	5.54	1070.6	1003.3
54.11	11.06	5.54	1070.9	1003.3
54.12	11.06	5.54	1071.2	1003.0
54.13	11.06	5.54	1070.9	1003.2
54.14	11.06	5.54	1071.1	1003.2
54.15	11.06	5.54	1070.5	1003.3
54.16	11.06	5.54	1071.1	1003.4
54.17	11.05	5.54	1070.6	1003.3
54.18	11.06	5.54	1071.1	1003.1
54.19	11.06	5.54	1070.3	1003.3
54.2	11.07	5.54	1071.0	1003.1
54.21	11.06	5.54	1070.8	1003.2
54.22	11.06	5.54	1070.6	1003.3
54.23	11.05	5.54	1070.5	1003.4
54.24	11.06	5.53	1070.5	1003.3
54.25	11.05	5.53	1070.4	1003.1
54.26	11.06	5.54	1070.8	1003.2
54.27	11.05	5.54	1070.9	1003.2
54.28	11.06	5.54	1070.6	1003.4
54.29	11.05	5.54	1070.9	1003.2
54.3	11.06	5.54	1071.2	1003.0
54.31	11.05	5.54	1070.8	1003.1
54.32	11.06	5.54	1070.4	1003.0
54.33	11.06	5.54	1070.2	1003.2
54.34	11.06	5.53	1070.8	1002.9
54.35	11.05	5.54	1070.6	1002.8
54.36	11.07	5.54	1070.7	1003.2
54.37	11.06	5.54	1070.1	1003.0
54.38	11.06	5.54	1070.5	1002.9
54.39	11.05	5.53	1070.5	1003.2
54.4	11.06	5.54	1070.2	1002.9
54.41	11.05	5.53	1070.4	1003.0
54.42	11.06	5.54	1070.1	1002.9
54.43	11.06	5.54	1070.0	1003.1
54.44	11.06	5.54	1070.0	1002.9
54.45	11.06	5.54	1070.4	1002.9
54.46	11.06	5.54	1069.5	1002.9
54.47	11.06	5.54	1070.0	1002.9
54.48	11.06	5.54	1070.5	1002.9
54.49	11.06	5.54	1069.7	1002.9
54.5	11.05	5.54	1069.9	1003.0
54.51	11.06	5.54	1069.7	1002.9
54.52	11.05	5.53	1070.3	1002.9
54.53	11.06	5.54	1070.1	1003.0
54.54	11.06	5.54	1069.8	1002.8
54.55	11.06	5.54	1069.8	1002.7
54.56	11.06	5.54	1069.8	1002.6
54.57	11.06	5.54	1069.6	1002.7
54.58	11.06	5.54	1070.0	1002.7
54.59	11.06	5.54	1069.6	1002.9
54.6	11.06	5.54	1069.7	1002.6
54.61	11.06	5.54	1070.3	1002.8
54.62	11.06	5.54	1070.5	1002.6
54.63	11.05	5.53	1069.9	1002.7
54.64	11.07	5.54	1069.5	1002.8
54.65	11.06	5.53	1069.8	1002.9
54.66	11.06	5.54	1070.1	1002.8
54.67	11.07	5.54	1069.7	1002.7
54.68	11.06	5.54	1069.9	1002.8
54.69	11.07	5.54	1069.0	1002.8
54.7	11.07	5.54	1069.6	1002.5
54.71	11.06	5.54	1069.8	1002.6
54.72	11.06	5.54	1069.8	1002.7
54.73	11.07	5.54	1069.8	1002.8
54.74	11.05	5.54	1069.7	1002.8
54.75	11.06	5.54	1069.3	1002.7
54.76	11.05	5.53	1070.2	1002.7
54.77	11.06	5.54	1069.6	1002.7
54.78	11.06	5.53	1069.7	1002.8
54.79	11.07	5.54	1069.6	1002.6
54.8	11.05	5.53	1069.4	1002.5
54.81	11.06	5.53	1069.8	1003.0
54.82	11.07	5.54	1069.6	1002.7
54.83	11.05	5.54	1069.7	1002.6
54.84	11.07	5.54	1069.8	1002.9
54.85	11.06	5.54	1069.6	1002.7
54.86	11.05	5.53	1069.6	1002.8
54.87	11.07	5.54	1069.0	1002.6
54.88	11.06	5.53	1069.7	1002.3
54.89	11.05	5.53	1069.7	1002.5
54.9	11.07	5.54	1069.7	1002.7
54.91	11.06	5.54	1069.1	1002.6
54.92	11.06	5.54	1069.6	1002.7
54.93	11.04	5.53	1069.6	1002.7
54.94	11.05	5.53	1069.7	1002.5
54.95	11.05	5.53	1069.4	1002.6
54.96	11.06	5.54	1069.5	1002.7
54.97	11.05	5.54	1069.8	1002.5
54.98	11.06	5.53	1069.4	1002.6
54.99	11.05	5.53	1069.6	1002.5
55.0	11.06	5.54	1069.1	1002.8
55.01	11.06	5.53	1069.2	1002.5
55.02	11.06	5.54	1069.2	1002.7
55.03	11.05	5.53	1069.2	1002.6
55.04	11.05	5.53	1069.1	1002.7
55.05	11.05	5.53	1069.2	1002.5
55.06	11.07	5.54	1069.5	1002.5
55.07	11.06	5.54	1069.3	1002.4
55.08	11.06	5.53	1069.5	1002.7
55.09	11.05	5.53	1068.7	1002.4
55.1	11.06	5.53	1069.3	1002.3
55.11	11.06	5.53	1069.2	1002.4
55.12	11.06	5.53	1069.4	1002.4
55.13	11.06	5.54	1069.2	1002.4
55.14	11.06	5.53	1069.0	1002.4
55.15	11.07	5.54	1069.3	1002.4
55.16	11.06	5.53	1069.3	1002.3
55.17	11.05	5.53	1069.2	1002.4
55.18	11.05	5.53	1068.6	1002.3
55.19	11.06	5.53	1069.5	1002.4
55.2	11.07	5.54	1069.3	1002.7
55.21	11.07	5.54	1069.2	1002.2
55.22	11.06	5.54	1069.1	1002.6
55.23	11.06	5.54	1068.5	1002.3
55.24	11.05	5.53	1069.3	1002.3
55.25	11.06	5.53	1069.0	1002.4
55.26	11.05	5.53	1068.7	1002.2
55.27	11.06	5.53	1068.8	1002.4
55.28	11.06	5.54	1068.8	1002.4
55.29	11.05	5.53	1069.3	1002.4
55.3	11.05	5.54	1069.3	1002.3
55.31	11.06	5.53	1068.7	1002.4
55.32	11.05	5.53	1068.4	1002.5
55.33	11.06	5.53	1069.1	1002.4
55.34	11.07	5.54	1068.7	1002.2
55.35	11.06	5.53	1068.9	1002.5
55.36	11.05	5.53	1068.3	1002.5
55.37	11.06	5.53	1068.3	1002.1
55.38	11.05	5.54	1068.2	1002.3
55.39	11.07	5.54	1068.3	1002.3
55.4	11.06	5.54	1068.7	1002.3
55.41	11.06	5.54	1068.4	1002.2
55.42	11.06	5.53	1068.3	1002.2
55.43	11.06	5.53	1068.2	1002.3
55.44	11.06	5.53	1068.4	1002.2
55.45	11.07	5.54	1068.0	1002.2
55.46	11.06	5.53	1068.0	1002.1
55.47	11.06	5.53	1068.3	1002.2
55.48	11.06	5.53	1068.1	1002.4
55.49	11.06	5.53	1067.6	1002.0
55.5	11.06	5.53	1067.6	1002.1
55.51	11.06	5.53	1068.1	1002.2
55.52	11.06	5.53	1068.1	1001.9
55.53	11.05	5.53	1068.2	1002.2
55.54	11.07	5.53	1068.3	1001.9
55.55	11.07	5.54	1067.9	1002.0
55.56	11.06	5.53	1068.0	1002.1
55.57	11.06	5.54	1067.5	1002.2
55.58	11.06	5.53	1068.1	1002.0
55.59	11.05	5.53	1067.3	1001.8
55.6	11.06	5.53	1067.8	1002.1
55.61	11.06	5.53	1068.4	1001.8
55.62	11.06	5.53	1068.0	1002.2
55.63	11.07	5.54	1068.6	1002.0
55.64	11.06	5.53	1067.8	1002.0
55.65	11.06	5.53	1067.8	1002.1
55.66	11.06	5.53	1068.2	1002.1
55.67	11.05	5.53	1068.7	1002.1
55.68	11.05	5.53	1067.6	1002.2
55.69	11.05	5.53	1068.2	1002.2
55.7	11.06	5.53	1068.0	1002.0
55.71	11.05	5.53	1068.1	1002.0
55.72	11.07	5.53	1068.3	1002.1
55.73	11.05	5.53	1067.2	1001.9
55.74	11.05	5.53	1067.9	1002.2
55.75	11.05	5.53	1067.7	1002.3
55.76	11.06	5.53	1067.5	1001.9
55.77	11.04	5.53	1067.5	1002.2
55.78	11.06	5.53	1067.5	1002.0
55.79	11.06	5.53	1068.1	1002.0
55.8	11.06	5.53	1067.4	1002.1
55.81	11.05	5.53	1067.4	1001.9
55.82	11.06	5.53	1067.2	1002.1
55.83	11.06	5.53	1067.5	1002.0
55.84	11.06	5.53	1067.9	1002.2
55.85	11.05	5.53	1067.2	1002.2
55.86	11.07	5.53	1067.4	1002.1
55.87	11.06	5.53	1067.1	1002.1
55.88	11.06	5.53	1067.2	1002.0
55.89	11.06	5.53	1067.3	1002.1
55.9	11.05	5.53	1067.5	1001.9
55.91	11.06	5.53	1067.1	1002.0
55.92	11.06	5.53	1067.4	1002.1
55.93	11.08	5.54	1067.7	1001.7
55.94	11.05	5.53	1068.0	1001.9
55.95	11.05	5.53	1067.7	1001.9
55.96	11.06	5.53	1067.5	1001.9
55.97	11.06	5.53	1067.9	1001.8
55.98	11.05	5.53	1067.7	1001.6
55.99	11.06	5.53	1067.7	1002.0
56.0	11.05	5.53	1067.3	1001.8
56.01	11.06	5.53	1067.4	1002.0
56.02	11.05	5.53	1067.4	1001.8
56.03	11.06	5.53	1067.4	1001.9
56.04	11.05	5.53	1067.3	1001.8
56.05	11.06	5.53	1066.9	1001.8
56.06	11.06	5.53	1067.2	1001.8
56.07	11.07	5.53	1067.5	1001.7
56.08	11.04	5.53	1067.2	1001.6
56.09	11.07	5.53	1067.0	1001.9
56.1	11.06	5.53	1066.7	1001.6
56.11	11.07	5.54	1067.1	1001.7
56.12	11.06	5.53	1067.0	1001.7
56.13	11.06	5.53	1067.4	1001.8
56.14	11.06	5.54	1067.4	1001.7
56.15	11.06	5.53	1066.6	1001.7
56.16	11.05	5.53	1067.4	1001.8
56.17	11.06	5.53	1067.4	1001.7
56.18	11.05	5.53	1067.4	1001.6
56.19	11.06	5.53	1067.1	1001.7
56.2	11.06	5.53	1066.9	1001.7
56.21	11.05	5.53	1067.2	1001.7
56.22	11.06	5.53	1067.4	1001.8
56.23	11.06	5.53	1067.2	1001.4
56.24	11.07	5.53	1067.0	1001.7
56.25	11.07	5.54	1067.2	1001.6
56.26	11.06	5.53	1067.0	1001.6
56.27	11.06	5.54	1067.0	1001.6
56.28	11.05	5.53	1067.1	1001.6
56.29	11.06	5.53	1066.8	1001.7
56.3	11.07	5.53	1066.9	1001.7
56.31	11.06	5.53	1067.2	1001.6
56.32	11.06	5.53	1066.3	1001.5
56.33	11.05	5.53	1066.6	1001.8
56.34	11.06	5.53	1067.1	1001.5
56.35	11.05	5.53	1066.9	1001.7
56.36	11.06	5.53	1066.9	1001.7
56.37	11.06	5.53	1067.0	1001.6
56.38	11.06	5.53	1066.4	1001.6
56.39	11.06	5.53	1066.9	1001.8
56.4	11.06	5.53	1066.8	1001.6
56.41	11.05	5.53	1066.9	1001.6
56.42	11.07	5.53	1066.6	1001.4
56.43	11.04	5.53	1066.9	1001.5
56.44	11.06	5.53	1066.6	1001.4
56.45	11.06	5.53	1066.4	1001.5
56.46	11.05	5.53	1067.1	1001.5
56.47	11.06	5.53	1065.8	1001.4
56.48	11.07	5.53	1066.5	1001.6
56.49	11.06	5.53	1066.6	1001.5
56.5	11.06	5.53	1066.3	1001.5
56.51	11.05	5.53	1066.2	1001.6
56.52	11.06	5.53	1066.3	1001.6
56.53	11.07	5.53	1066.8	1001.4
56.54	11.06	5.53	1066.5	1001.5
56.55	11.06	5.53	1066.6	1001.5
56.56	11.06	5.53	1066.1	1001.5
56.57	11.05	5.53	1065.9	1001.5
56.58	11.06	5.53	1066.4	1001.5
56.59	11.06	5.53	1066.5	1001.4
56.6	11.07	5.53	1066.3	1001.5
56.61	11.07	5.53	1065.8	1001.6
56.62	11.05	5.53	1066.0	1001.2
56.63	11.07	5.53	1066.2	1001.6
56.64	11.06	5.53	1066.2	1001.6
56.65	11.06	5.53	1065.9	1001.7
56.66	11.06	5.53	1065.9	1001.5
56.67	11.05	5.52	1066.2	1001.5
56.68	11.06	5.53	1066.2	1001.4
56.69	11.06	5.53	1066.2	1001.3
56.7	11.06	5.53	1065.5	1001.8
56.71	11.07	5.53	1066.0	1001.2
56.72	11.05	5.53	1065.8	1001.4
56.73	11.06	5.53	1065.6	1001.4
56.74	11.05	5.53	1066.3	1001.2
56.75	11.08	5.53	1065.4	1001.2
56.76	11.06	5.53	1065.9	1001.4
56.77	11.05	5.53	1065.9	1001.3
56.78	11.05	5.53	1065.8	1001.1
56.79	11.06	5.53	1065.4	1001.5
56.8	11.06	5.53	1066.0	1001.2
56.81	11.07	5.53	1065.7	1001.3
56.82	11.05	5.53	1065.6	1001.2
56.83	11.07	5.53	1065.9	1001.6
56.84	11.06	5.53	1066.0	1001.2
56.85	11.05	5.53	1065.9	1001.3
56.86	11.05	5.53	1065.7	1001.1
56.87	11.05	5.53	1066.0	1001.4
56.88	11.06	5.53	1065.5	1001.2
56.89	11.06	5.53	1065.7	1001.2
56.9	11.05	5.53	1066.4	1001.2
56.91	11.06	5.53	1066.0	1001.2
56.92	11.06	5.53	1065.5	1001.2
56.93	11.06	5.53	1065.5	1001.3
56.94	11.06	5.53	1065.8	1001.1
56.95	11.04	5.52	1065.5	1001.4
56.96	11.05	5.53	1065.5	1001.3
56.97	11.06	5.53	1065.5	1001.1
56.98	11.05	5.52	1065.8	1001.2
56.99	11.05	5.53	1065.9	1001.4
57.0	11.05	5.53	1065.7	1001.1
57.01	11.06	5.53	1065.6	1001.2
57.02	11.06	5.53	1065.2	1001.2
57.03	11.05	5.53	1065.9	1001.2
57.04	11.05	5.53	1066.3	1001.2
57.05	11.06	5.53	1066.0	1001.2
57.06	11.06	5.53	1065.6	1001.2
57.07	11.04	5.52	1065.4	1001.2
57.08	11.06	5.53	1065.9	1001.1
57.09	11.05	5.53	1065.7	1001.2
57.1	11.06	5.53	1065.5	1001.2
57.11	11.05	5.53	1065.1	1001.2
57.12	11.06	5.53	1065.8	1001.2
57.13	11.04	5.52	1065.4	1001.1
57.14	11.06	5.53	1065.4	1001.0
57.15	11.06	5.53	1065.6	1001.3
57.16	11.06	5.53	1065.1	1001.3
57.17	11.06	5.53	1065.6	1001.2
57.18	11.05	5.53	1065.5	1001.0
57.19	11.06	5.53	1065.5	1001.1
57.2	11.05	5.53	1065.6	1001.2
57.21	11.05	5.52	1065.7	1001.1
57.22	11.05	5.53	1065.2	1001.1
57.23	11.05	5.53	1065.0	1001.1
57.24	11.06	5.53	1065.1	1001.0
57.25	11.06	5.53	1064.4	1001.1
57.26	11.05	5.52	1064.9	1001.1
57.27	11.06	5.53	1065.2	1001.5
57.28	11.06	5.53	1065.1	1001.1
57.29	11.06	5.53	1064.8	1001.2
57.3	11.05	5.53	1064.8	1001.1
57.31	11.06	5.53	1065.0	1001.0
57.32	11.05	5.53	1065.0	1000.8
57.33	11.05	5.53	1065.1	1001.2
57.34	11.05	5.53	1064.6	1001.1
57.35	11.06	5.53	1064.8	1001.1
57.36	11.06	5.53	1064.7	1001.0
57.37	11.06	5.53	1065.0	1001.2
57.38	11.05	5.53	1065.1	1001.2
57.39	11.05	5.52	1064.8	1001.2
57.4	11.06	5.53	1065.0	1001.0
57.41	11.07	5.53	1065.0	1000.9
57.42	11.06	5.53	1064.8	1000.9
57.43	11.05	5.53	1065.1	1001.0
57.44	11.05	5.53	1064.4	1000.9
57.45	11.06	5.53	1065.0	1001.2
57.46	11.06	5.53	1064.6	1001.0
57.47	11.07	5.53	1064.6	1001.2
57.48	11.04	5.52	1064.6	1000.9
57.49	11.07	5.53	1064.7	1001.1
57.5	11.05	5.53	1065.2	1000.9
57.51	11.06	5.53	1064.9	1001.0
57.52	11.05	5.52	1065.0	1001.0
57.53	11.06	5.53	1064.6	1000.8
57.54	11.06	5.53	1064.9	1001.0
57.55	11.06	5.53	1064.9	1001.1
57.56	11.04	5.52	1064.5	1001.0
57.57	11.06	5.53	1064.6	1001.0
57.58	11.06	5.53	1064.6	1000.7
57.59	11.06	5.53	1064.9	1001.0
57.6	11.05	5.53	1064.7	1000.8
57.61	11.04	5.52	1064.9	1000.7
57.62	11.05	5.52	1064.3	1001.0
57.63	11.06	5.53	1064.2	1000.8
57.64	11.07	5.53	1064.8	1001.0
57.65	11.06	5.53	1064.4	1000.9
57.66	11.06	5.53	1064.6	1000.8
57.67	11.06	5.53	1063.9	1000.8
57.68	11.05	5.52	1064.7	1000.7
57.69	11.06	5.53	1064.4	1001.2
57.7	11.06	5.53	1064.4	1000.7
57.71	11.05	5.52	1064.4	1000.9
57.72	11.06	5.53	1064.3	1000.9
57.73	11.06	5.53	1064.5	1000.9
57.74	11.06	5.53	1064.2	1000.8
57.75	11.05	5.53	1063.5	1000.9
57.76	11.06	5.52	1063.8	1000.7
57.77	11.06	5.53	1064.3	1000.6
57.78	11.06	5.53	1064.2	1000.9
57.79	11.05	5.52	1063.7	1000.8
57.8	11.06	5.52	1064.1	1000.8
57.81	11.05	5.52	1063.8	1000.7
57.82	11.06	5.53	1064.2	1000.8
57.83	11.06	5.53	1064.3	1000.7
57.84	11.06	5.52	1064.0	1000.6
57.85	11.05	5.53	1063.7	1000.8
57.86	11.05	5.52	1064.0	1000.6
57.87	11.06	5.53	1064.2	1000.7
57.88	11.07	5.53	1063.9	1000.8
57.89	11.05	5.52	1063.8	1000.8
57.9	11.06	5.53	1063.8	1000.6
57.91	11.05	5.52	1064.1	1000.8
57.92	11.06	5.53	1063.8	1000.6
57.93	11.06	5.53	1063.7	1000.9
57.94	11.05	5.52	1063.3	1000.6
57.95	11.05	5.52	1063.8	1000.7
57.96	11.06	5.53	1063.7	1000.6
57.97	11.06	5.53	1063.5	1000.6
57.98	11.06	5.53	1063.7	1000.6
57.99	11.06	5.53	1063.3	1000.6
58.0	11.05	5.53	1063.5	1000.7
58.01	11.06	5.53	1064.0	1000.6
58.02	11.06	5.53	1063.4	1000.7
58.03	11.05	5.52	1063.4	1000.7
58.04	11.05	5.52	1063.6	1000.6
58.05	11.06	5.53	1063.6	1000.7
58.06	11.05	5.53	1063.5	1000.7
58.07	11.05	5.52	1064.4	1000.7
58.08	11.06	5.53	1063.6	1000.9
58.09	11.06	5.52	1063.7	1000.8
58.1	11.05	5.53	1063.9	1000.9
58.11	11.06	5.53	1063.4	1000.5
58.12	11.05	5.52	1063.2	1000.7
58.13	11.07	5.53	1063.5	1000.7
58.14	11.06	5.53	1063.6	1000.6
58.15	11.06	5.53	1063.6	1000.5
58.16	11.06	5.53	1063.8	1000.7
58.17	11.07	5.53	1063.7	1000.8
58.18	11.06	5.52	1063.3	1000.5
58.19	11.07	5.53	1063.4	1000.8
58.2	11.05	5.52	1063.4	1000.7
58.21	11.06	5.53	1063.6	1000.7
58.22	11.06	5.53	1063.3	1000.7
58.23	11.05	5.52	1063.9	1000.6
58.24	11.05	5.53	1064.0	1000.6
58.25	11.07	5.53	1063.3	1000.5
58.26	11.05	5.53	1063.4	1000.6
58.27	11.05	5.52	1063.3	1000.7
58.28	11.05	5.53	1063.9	1000.6
58.29	11.05	5.53	1063.5	1000.6
58.3	11.06	5.53	1064.0	1000.5
58.31	11.06	5.53	1063.2	1000.6
58.32	11.06	5.53	1063.2	1000.7
58.33	11.05	5.52	1063.3	1000.4
58.34	11.05	5.53	1063.6	1000.6
58.35	11.05	5.53	1063.6	1000.7
58.36	11.05	5.52	1063.1	1000.7
58.37	11.06	5.53	1063.5	1000.5
58.38	11.06	5.53	1063.2	1000.5
58.39	11.05	5.52	1063.1	1000.7
58.4	11.06	5.52	1063.2	1000.7
58.41	11.06	5.52	1062.9	1000.5
58.42	11.07	5.53	1063.0	1000.7
58.43	11.06	5.53	1063.0	1000.6
58.44	11.06	5.52	1062.7	1000.6
58.45	11.06	5.53	1062.5	1000.6
58.46	11.07	5.53	1063.0	1000.6
58.47	11.06	5.53	1063.4	1000.7
58.48	11.05	5.52	1063.7	1000.5
58.49	11.05	5.53	1063.0	1000.7
58.5	11.07	5.53	1063.1	1000.4
58.51	11.05	5.52	1063.3	1000.8
58.52	11.07	5.52	1063.3	1000.4
58.53	11.05	5.52	1063.7	1000.6
58.54	11.05	5.52	1063.0	1000.5
58.55	11.05	5.53	1063.2	1000.5
58.56	11.07	5.52	1063.2	1000.7
58.57	11.05	5.53	1063.4	1000.5
58.58	11.05	5.52	1063.3	1000.5
58.59	11.04	5.52	1062.9	1000.8
58.6	11.06	5.52	1062.9	1000.5
58.61	11.05	5.53	1062.9	1000.4
58.62	11.07	5.53	1062.8	1000.5
58.63	11.05	5.52	1062.3	1000.4
58.64	11.06	5.52	1062.7	1000.3
58.65	11.06	5.53	1062.7	1000.5
58.66	11.05	5.52	1062.8	1000.6
58.67	11.06	5.52	1063.2	1000.3
58.68	11.06	5.53	1062.8	1000.5
58.69	11.06	5.52	1062.7	1000.3
58.7	11.07	5.53	1062.9	1000.3
58.71	11.06	5.52	1062.8	1000.3
58.72	11.05	5.53	1062.6	1000.3
58.73	11.06	5.52	1062.8	1000.5
58.74	11.06	5.53	1063.0	1000.2
58.75	11.06	5.53	1062.9	1000.4
58.76	11.06	5.52	1062.9	1000.3
58.77	11.06	5.52	1062.3	1000.5
58.78	11.06	5.53	1063.0	1000.2
58.79	11.06	5.52	1062.8	1000.4
58.8	11.06	5.53	1062.6	1000.4
58.81	11.06	5.52	1062.3	1000.2
58.82	11.05	5.52	1062.2	1000.2
58.83	11.07	5.53	1062.4	1000.2
58.84	11.05	5.52	1062.5	1000.2
58.85	11.06	5.52	1062.4	1000.4
58.86	11.07	5.53	1062.2	1000.2
58.87	11.05	5.52	1062.7	1000.5
58.88	11.06	5.52	1062.2	1000.2
58.89	11.07	5.53	1062.7	1000.4
58.9	11.05	5.52	1062.4	1000.2
58.91	11.07	5.52	1062.5	1000.3
58.92	11.05	5.52	1062.8	1000.4
58.93	11.07	5.53	1062.8	1000.3
58.94	11.06	5.52	1062.8	1000.2
58.95	11.06	5.52	1062.5	1000.3
58.96	11.06	5.52	1062.6	1000.1
58.97	11.07	5.53	1062.5	1000.0
58.98	11.05	5.52	1062.3	1000.2
58.99	11.06	5.52	1062.8	1000.0
59.0	11.06	5.53	1062.7	1000.2
59.01	11.07	5.53	1062.6	999.9
59.02	11.06	5.53	1062.6	999.9
59.03	11.05	5.52	1062.9	1000.0
59.04	11.05	5.52	1061.9	1000.3
59.05	11.05	5.52	1062.4	1000.1
59.06	11.04	5.52	1062.2	1000.1
59.07	11.06	5.52	1062.6	1000.1
59.08	11.06	5.53	1062.8	999.9
59.09	11.06	5.53	1061.6	1000.2
59.1	11.05	5.53	1062.1	999.9
59.11	11.06	5.53	1062.5	1000.0
59.12	11.07	5.52	1062.8	999.9
59.13	11.06	5.52	1061.9	1000.0
59.14	11.07	5.52	1062.3	999.9
59.15	11.06	5.52	1062.1	1000.0
59.16	11.06	5.52	1062.1	999.9
59.17	11.06	5.52	1062.1	1000.0
59.18	11.07	5.52	1061.6	1000.0
59.19	11.06	5.52	1062.0	999.9
59.2	11.06	5.53	1062.0	999.9
59.21	11.05	5.52	1062.4	999.8
59.22	11.06	5.52	1062.0	999.8
59.23	11.05	5.52	1062.0	999.8
59.24	11.06	5.52	1061.6	999.6
59.25	11.06	5.52	1062.2	1000.0
59.26	11.05	5.52	1062.4	999.8
59.27	11.07	5.53	1062.0	999.8
59.28	11.06	5.52	1061.8	999.9
59.29	11.05	5.52	1061.8	999.8
59.3	11.06	5.52	1061.7	999.8
59.31	11.06	5.52	1061.7	999.8
59.32	11.06	5.52	1061.6	1000.0
59.33	11.06	5.52	1061.4	999.9
59.34	11.06	5.53	1061.2	999.7
59.35	11.06	5.52	1061.1	1000.0
59.36	11.05	5.52	1061.1	999.8
59.37	11.05	5.52	1062.1	999.8
59.38	11.04	5.52	1061.7	999.8
59.39	11.06	5.52	1061.8	999.8
59.4	11.06	5.53	1061.0	999.7
59.41	11.05	5.52	1061.2	999.5
59.42	11.07	5.53	1061.7	999.8
59.43	11.07	5.53	1061.6	999.8
59.44	11.06	5.52	1061.8	999.5
59.45	11.06	5.52	1061.5	999.6
59.46	11.06	5.52	1061.4	999.6
59.47	11.05	5.52	1061.8	999.7
59.48	11.05	5.52	1061.3	999.5
59.49	11.06	5.52	1061.2	999.7
59.5	11.07	5.53	1061.2	999.7
59.51	11.07	5.53	1061.1	999.8
59.52	11.06	5.52	1061.1	999.5
59.53	11.06	5.52	1060.5	999.6
59.54	11.05	5.52	1061.0	999.4
59.55	11.06	5.52	1061.4	999.6
59.56	11.06	5.52	1060.8	999.6
59.57	11.07	5.52	1061.1	999.6
59.58	11.05	5.52	1061.0	999.4
59.59	11.07	5.52	1061.2	999.7
59.6	11.04	5.52	1061.5	999.5
59.61	11.06	5.52	1061.3	999.4
59.62	11.05	5.52	1061.6	999.2
59.63	11.08	5.53	1060.8	999.4
59.64	11.05	5.52	1061.4	999.5
59.65	11.06	5.52	1061.3	999.3
59.66	11.06	5.52	1061.0	999.6
59.67	11.06	5.52	1061.1	999.3
59.68	11.05	5.52	1060.7	999.3
59.69	11.07	5.53	1061.2	999.4
59.7	11.05	5.52	1061.2	999.0
59.71	11.06	5.53	1061.5	999.2
59.72	11.05	5.52	1060.5	999.4
59.73	11.06	5.52	1061.3	999.3
59.74	11.05	5.52	1061.0	999.0
59.75	11.05	5.52	1061.4	999.3
59.76	11.05	5.52	1060.9	999.0
59.77	11.05	5.52	1060.7	999.2
59.78	11.06	5.52	1061.5	999.5
59.79	11.05	5.52	1061.2	999.2
59.8	11.05	5.52	1061.0	999.4
59.81	11.05	5.52	1060.3	999.2
59.82	11.06	5.53	1061.2	999.2
59.83	11.05	5.52	1061.5	999.1
59.84	11.07	5.52	1061.4	999.2
59.85	11.05	5.52	1061.2	999.3
59.86	11.05	5.52	1060.9	999.2
59.87	11.06	5.52	1061.2	999.4
59.88	11.07	5.52	1061.0	999.0
59.89	11.05	5.52	1061.1	999.1
59.9	11.06	5.52	1060.5	999.2
59.91	11.06	5.52	1060.6	999.0
59.92	11.06	5.52	1061.4	999.1
59.93	11.05	5.52	1060.7	999.3
59.94	11.06	5.52	1061.4	999.2
59.95	11.06	5.52	1060.5	999.2
59.96	11.06	5.52	1061.1	999.0
59.97	11.05	5.52	1061.0	999.2
59.98	11.06	5.52	1061.0	999.2
59.98	11.06	5.52	1061.0	999.2
59.99	11.06	5.52	1061.0	999.2
60.0	11.06	5.52	1061.0	999.2
60.01	11.06	5.52	1061.0	999.2
60.02	11.06	5.52	1061.0	999.2
60.03	11.06	5.52	1061.0	999.2
60.04	11.06	5.52	1061.0	999.2
60.05	11.06	5.52	1061.0	999.2
60.06	11.06	5.52	1061.0	999.2
60.07	11.06	5.52	1061.0	999.2
60.08	11.06	5.52	1061.0	999.2
60.09	11.06	5.52	1061.0	999.2
60.1	11.06	5.52	1061.0	999.2
60.11	11.06	5.52	1061.0	999.2
60.12	11.06	5.52	1061.0	999.2
60.13	11.06	5.52	1061.0	999.2
60.14	11.06	5.52	1061.0	999.2
60.15	11.06	5.52	1061.0	999.2
60.16	11.06	5.52	1061.0	999.2
60.17	11.06	5.52	1061.0	999.2
60.18	11.06	5.52	1061.0	999.2
60.19	11.06	5.52	1061.0	999.2
60.2	11.06	5.52	1061.0	999.2
60.21	11.06	5.52	1061.0	999.2
60.22	11.06	5.52	1061.0	999.2
60.23	11.06	5.52	1061.0	999.2
60.24	11.06	5.52	1061.0	999.2
60.25	11.06	5.52	1061.0	999.2
60.26	11.06	5.52	1061.0	999.2
60.27	11.06	5.52	1061.0	999.2
60.28	11.06	5.52	1061.0	999.2
60.29	11.06	5.52	1061.0	999.2
60.3	11.06	5.52	1061.0	999.2
60.31	11.06	5.52	1061.0	999.2
60.32	11.06	5.52	1061.0	999.2
60.33	11.06	5.52	1061.0	999.2
60.34	11.06	5.52	1061.0	999.2
60.35	11.06	5.52	1061.0	999.2
60.36	11.06	5.52	1061.0	999.2
60.37	11.06	5.52	1061.0	999.2
60.38	11.06	5.52	1061.0	999.2
60.39	11.06	5.52	1061.0	999.2
60.4	11.06	5.52	1061.0	999.2
60.41	11.06	5.52	1061.0	999.2
60.42	11.06	5.52	1061.0	999.2
60.43	11.06	5.52	1061.0	999.2
60.44	11.06	5.52	1061.0	999.2
60.45	11.06	5.52	1061.0	999.2
60.46	11.06	5.52	1061.0	999.2
60.47	11.06	5.52	1061.0	999.2
60.48	11.06	5.52	1061.0	999.2
60.49	11.06	5.52	1061.0	999.2
60.5	11.06	5.52	1061.0	999.2
60.51	11.06	5.52	1061.0	999.2
60.52	11.06	5.52	1061.0	999.2
60.53	11.06	5.52	1061.0	999.2
60.54	11.06	5.52	1061.0	999.2
60.55	11.06	5.52	1061.0	999.2
60.56	11.06	5.52	1061.0	999.2
60.57	11.06	5.52	1061.0	999.2
60.58	11.06	5.52	1061.0	999.2
60.59	11.06	5.52	1061.0	999.2
60.6	11.06	5.52	1061.0	999.2
60.61	11.06	5.52	1061.0	999.2
60.62	11.06	5.52	1061.0	999.2
60.63	11.06	5.52	1061.0	999.2
60.64	11.06	5.52	1061.0	999.2
60.65	11.06	5.52	1061.0	999.2
60.66	11.06	5.52	1061.0	999.2
60.67	11.06	5.52	1061.0	999.2
60.68	11.06	5.52	1061.0	999.2
60.69	11.06	5.52	1061.0	999.2
60.7	11.06	5.52	1061.0	999.2
60.71	11.06	5.52	1061.0	999.2
60.72	11.06	5.52	1061.0	999.2
60.73	11.06	5.52	1061.0	999.2
60.74	11.06	5.52	1061.0	999.2
60.75	11.06	5.52	1061.0	999.2
60.76	11.06	5.52	1061.0	999.2
60.77	11.06	5.52	1061.0	999.2
60.78	11.06	5.52	1061.0	999.2
60.79	11.06	5.52	1061.0	999.2
60.8	11.06	5.52	1061.0	999.2
60.81	11.06	5.52	1061.0	999.2
60.82	11.06	5.52	1061.0	999.2
60.83	11.06	5.52	1061.0	999.2
60.84	11.06	5.52	1061.0	999.2
60.85	11.06	5.52	1061.0	999.2
60.86	11.06	5.52	1061.0	999.2
60.87	11.06	5.52	1061.0	999.2
60.88	11.06	5.52	1061.0	999.2
60.89	11.06	5.52	1061.0	999.2
60.9	11.06	5.52	1061.0	999.2
60.91	11.06	5.52	1061.0	999.2
60.92	11.06	5.52	1061.0	999.2
60.93	11.06	5.52	1061.0	999.2
60.94	11.06	5.52	1061.0	999.2
60.95	11.06	5.52	1061.0	999.2
60.96	11.06	5.52	1061.0	999.2
60.97	11.06	5.52	1061.0	999.2
60.98	11.06	5.52	1061.0	999.2
60.99	11.06	5.52	1061.0	999.2
61.0	11.06	5.52	1061.0	999.2