t[s]	U[V]	I[A]	Piro[C]	TC[C]
-0.01	-0.01	-0.01	649.9	685.7
0.0	9.36	15.78	685.7	649.9
0.01	10.57	17.76	685.6	649.6
0.02	10.85	18.19	685.6	649.9
0.03	10.94	18.28	685.5	649.6
0.04	10.98	18.31	685.6	649.8
0.05	10.99	18.3	685.6	649.8
0.06	11.0	18.29	685.7	649.7
0.07	11.03	18.27	685.6	649.8
0.08	11.03	18.26	685.6	649.7
0.09	11.05	18.26	685.6	649.7
0.1	11.05	18.23	685.5	649.5
0.11	11.05	18.21	685.6	649.9
0.12	11.05	18.18	685.6	649.7
0.13	11.06	18.16	685.6	649.8
0.14	11.06	18.15	685.6	649.9
0.15	11.06	18.12	685.7	649.8
0.16	11.05	18.09	685.7	649.9
0.17	11.05	18.07	685.6	649.8
0.18	11.06	18.05	685.6	649.8
0.19	11.06	18.03	685.6	649.7
0.2	11.06	18.02	685.7	649.6
0.21	11.07	18.0	685.6	649.7
0.22	11.06	17.99	685.6	649.8
0.23	11.07	17.96	685.5	649.8
0.24	11.06	17.94	685.5	649.8
0.25	11.06	17.92	685.5	649.9
0.26	11.05	17.89	685.7	649.6
0.27	11.06	17.88	685.5	650.0
0.28	11.05	17.85	685.6	650.0
0.29	11.06	17.84	685.7	649.7
0.3	11.05	17.82	685.6	649.6
0.31	11.06	17.8	685.5	649.9
0.32	11.06	17.79	685.6	649.8
0.33	11.06	17.77	685.5	649.7
0.34	11.07	17.76	685.6	650.0
0.35	11.06	17.74	685.6	649.7
0.36	11.07	17.72	685.6	650.0
0.37	11.06	17.7	685.6	649.8
0.38	11.06	17.67	685.5	649.8
0.39	11.05	17.65	685.6	649.7
0.4	11.06	17.64	685.6	650.0
0.41	11.06	17.62	685.6	649.8
0.42	11.05	17.6	685.6	649.8
0.43	11.06	17.59	685.5	650.0
0.44	11.06	17.57	685.5	649.8
0.45	11.06	17.56	685.5	650.0
0.46	11.06	17.54	685.5	649.8
0.47	11.06	17.52	685.5	649.7
0.48	11.07	17.52	685.6	649.8
0.49	11.06	17.48	685.7	649.7
0.5	11.05	17.47	685.6	650.0
0.51	11.05	17.45	685.5	649.8
0.52	11.07	17.45	685.5	649.9
0.53	11.07	17.44	685.5	649.7
0.54	11.07	17.42	685.6	649.6
0.55	11.05	17.39	685.6	649.6
0.56	11.06	17.39	685.5	649.9
0.57	11.05	17.36	685.6	649.8
0.58	11.05	17.34	685.6	649.8
0.59	11.05	17.32	685.6	649.8
0.6	11.05	17.31	685.6	649.8
0.61	11.05	17.31	685.5	649.9
0.62	11.07	17.29	685.6	649.6
0.63	11.06	17.26	685.6	649.9
0.64	11.05	17.25	685.5	649.9
0.65	11.06	17.24	685.6	649.8
0.66	11.07	17.22	685.6	649.8
0.67	11.06	17.2	685.5	649.9
0.68	11.07	17.2	685.6	649.8
0.69	11.06	17.18	685.6	649.6
0.7	11.05	17.15	685.6	649.8
0.71	11.06	17.14	685.6	649.7
0.72	11.06	17.12	685.6	649.7
0.73	11.07	17.1	685.5	649.9
0.74	11.07	17.12	685.6	649.7
0.75	11.08	17.08	685.7	649.9
0.76	11.06	17.06	685.6	649.6
0.77	11.06	17.04	685.5	649.7
0.78	11.06	17.03	685.5	649.8
0.79	11.06	17.01	685.6	649.8
0.8	11.07	17.02	685.6	649.8
0.81	11.06	16.98	685.6	649.9
0.82	11.05	16.96	685.5	649.9
0.83	11.05	16.94	685.5	649.7
0.84	11.07	16.95	685.6	649.9
0.85	11.07	16.92	685.5	649.8
0.86	11.06	16.9	685.8	649.8
0.87	11.06	16.89	685.6	650.0
0.88	11.06	16.88	685.7	649.8
0.89	11.07	16.87	685.7	649.7
0.9	11.06	16.84	685.5	649.8
0.91	11.07	16.83	685.5	649.9
0.92	11.06	16.82	685.6	649.9
0.93	11.06	16.78	685.5	649.9
0.94	11.06	16.79	685.5	649.9
0.95	11.06	16.76	685.6	649.9
0.96	11.05	16.74	685.6	649.7
0.97	11.07	16.74	685.6	649.8
0.98	11.08	16.74	685.6	649.7
0.99	11.06	16.71	685.7	649.7
1.0	11.06	16.69	685.6	649.9
1.01	11.07	16.69	685.6	649.7
1.02	11.06	16.66	685.5	649.9
1.03	11.05	16.64	685.6	649.7
1.04	11.06	16.63	685.6	649.8
1.05	11.06	16.63	685.7	649.7
1.06	11.06	16.6	685.6	649.8
1.07	11.05	16.59	685.6	649.8
1.08	11.05	16.57	685.5	649.7
1.09	11.06	16.56	685.6	649.8
1.1	11.07	16.57	685.6	650.1
1.11	11.06	16.54	685.6	649.7
1.12	11.05	16.51	685.6	649.8
1.13	11.05	16.5	685.6	649.8
1.14	11.04	16.47	685.6	650.0
1.15	11.06	16.48	685.6	649.8
1.16	11.06	16.46	685.6	650.0
1.17	11.07	16.47	685.5	650.0
1.18	11.07	16.45	685.5	649.7
1.19	11.06	16.43	685.5	649.6
1.2	11.07	16.42	685.6	649.8
1.21	11.05	16.39	685.5	649.8
1.22	11.05	16.36	685.5	649.7
1.23	11.05	16.36	685.6	649.7
1.24	11.05	16.34	685.5	650.0
1.25	11.05	16.32	685.6	649.8
1.26	11.05	16.31	685.7	649.7
1.27	11.05	16.29	685.6	649.9
1.28	11.06	16.29	685.6	649.8
1.29	11.06	16.27	685.6	649.6
1.3	11.06	16.25	685.6	649.6
1.31	11.05	16.24	685.6	650.0
1.32	11.05	16.22	685.6	649.7
1.33	11.04	16.21	685.7	649.9
1.34	11.06	16.2	685.6	649.8
1.35	11.06	16.19	685.5	650.0
1.36	11.07	16.19	685.6	649.7
1.37	11.07	16.17	685.6	649.9
1.38	11.06	16.15	685.5	649.8
1.39	11.04	16.12	685.5	649.9
1.4	11.05	16.1	685.6	649.8
1.41	11.07	16.11	685.7	649.9
1.42	11.07	16.11	685.6	649.9
1.43	11.06	16.08	685.7	649.8
1.44	11.05	16.07	685.7	649.8
1.45	11.06	16.04	685.6	649.9
1.46	11.06	16.04	685.5	649.7
1.47	11.06	16.02	685.5	649.9
1.48	11.06	16.02	685.5	649.8
1.49	11.06	15.99	685.6	649.8
1.5	11.05	15.96	685.5	649.8
1.51	11.07	15.97	685.6	649.9
1.52	11.06	15.95	685.6	649.7
1.53	11.06	15.93	685.5	649.9
1.54	11.06	15.92	685.6	649.8
1.55	11.05	15.91	685.6	650.0
1.56	11.06	15.88	685.6	649.7
1.57	11.06	15.88	685.6	649.6
1.58	11.06	15.87	685.5	650.0
1.59	11.06	15.85	685.6	650.0
1.6	11.07	15.84	685.7	649.8
1.61	11.05	15.82	685.5	649.7
1.62	11.08	15.83	685.6	650.0
1.63	11.06	15.8	685.6	649.8
1.64	11.07	15.79	685.5	649.8
1.65	11.07	15.78	685.5	649.8
1.66	11.06	15.76	685.5	649.8
1.67	11.05	15.75	685.5	649.8
1.68	11.06	15.73	685.6	650.0
1.69	11.06	15.71	685.6	649.8
1.7	11.05	15.69	685.6	649.8
1.71	11.06	15.68	685.5	649.9
1.72	11.07	15.68	685.5	649.8
1.73	11.06	15.66	685.5	650.2
1.74	11.07	15.64	685.7	649.7
1.75	11.05	15.62	685.6	649.7
1.76	11.06	15.61	685.6	650.1
1.77	11.07	15.6	685.6	649.6
1.78	11.06	15.58	685.6	650.1
1.79	11.05	15.57	685.5	649.9
1.8	11.06	15.56	685.6	650.0
1.81	11.05	15.54	685.6	650.0
1.82	11.07	15.54	685.6	649.7
1.83	11.06	15.51	685.6	649.7
1.84	11.06	15.49	685.5	649.9
1.85	11.06	15.49	685.5	649.7
1.86	11.06	15.46	685.5	649.9
1.87	11.05	15.46	685.7	649.8
1.88	11.06	15.45	685.6	649.8
1.89	11.05	15.43	685.5	649.8
1.9	11.07	15.43	685.6	650.1
1.91	11.05	15.4	685.6	649.7
1.92	11.06	15.39	685.5	649.6
1.93	11.05	15.38	685.5	649.7
1.94	11.06	15.36	685.7	649.6
1.95	11.06	15.35	685.6	649.6
1.96	11.06	15.33	685.6	650.0
1.97	11.05	15.31	685.6	649.6
1.98	11.06	15.3	685.6	650.1
1.99	11.06	15.29	685.6	649.8
2.0	11.05	15.27	685.6	649.9
2.01	11.06	15.27	685.6	649.8
2.02	11.06	15.25	685.6	649.7
2.03	11.06	15.23	685.6	649.8
2.04	11.05	15.21	685.5	649.7
2.05	11.06	15.21	685.5	650.1
2.06	11.06	15.19	685.6	650.0
2.07	11.05	15.17	685.5	649.8
2.08	11.08	15.18	685.6	649.9
2.09	11.06	15.15	685.5	649.8
2.1	11.05	15.13	685.6	649.8
2.11	11.06	15.12	685.6	649.8
2.12	11.05	15.11	685.6	650.1
2.13	11.07	15.1	685.4	650.0
2.14	11.05	15.08	685.6	650.1
2.15	11.06	15.07	685.5	649.8
2.16	11.06	15.06	685.6	650.0
2.17	11.06	15.03	685.6	649.8
2.18	11.05	15.02	685.5	649.9
2.19	11.06	15.01	685.6	649.7
2.2	11.05	15.0	685.6	649.9
2.21	11.06	14.99	685.6	649.9
2.22	11.05	14.96	685.6	649.8
2.23	11.07	14.96	685.6	649.9
2.24	11.06	14.95	685.5	649.9
2.25	11.06	14.93	685.6	649.9
2.26	11.06	14.92	690.5	649.6
2.27	11.06	14.9	686.7	649.8
2.28	11.06	14.89	685.6	649.9
2.29	11.06	14.87	685.6	649.8
2.3	11.05	14.86	685.6	650.0
2.31	11.07	14.85	685.6	649.7
2.32	11.06	14.83	685.5	649.7
2.33	11.06	14.82	685.6	649.9
2.34	11.06	14.81	685.7	649.8
2.35	11.06	14.79	685.6	649.8
2.36	11.06	14.77	685.6	649.7
2.37	11.05	14.75	685.6	649.9
2.38	11.06	14.75	685.6	649.8
2.39	11.07	14.74	685.5	650.0
2.4	11.06	14.73	685.6	649.9
2.41	11.05	14.7	685.5	649.8
2.42	11.06	14.69	685.7	649.9
2.43	11.05	14.67	685.5	649.8
2.44	11.06	14.68	685.8	649.9
2.45	11.07	14.67	685.7	650.0
2.46	11.06	14.63	685.7	649.9
2.47	11.06	14.63	685.6	649.7
2.48	11.06	14.61	685.6	649.9
2.49	11.05	14.59	685.6	649.9
2.5	11.06	14.58	685.6	649.8
2.51	11.06	14.57	685.7	650.2
2.52	11.06	14.55	685.6	650.7
2.53	11.06	14.54	685.5	651.1
2.54	11.07	14.52	685.6	653.6
2.55	11.06	14.52	685.5	654.9
2.56	11.06	14.49	685.6	656.1
2.57	11.07	14.49	685.7	658.1
2.58	11.07	14.48	685.6	659.3
2.59	11.06	14.46	685.5	661.0
2.6	11.08	14.45	685.6	662.3
2.61	11.06	14.44	685.5	664.0
2.62	11.07	14.42	685.6	665.5
2.63	11.05	14.4	685.6	666.8
2.64	11.05	14.38	685.5	669.1
2.65	11.06	14.38	685.7	670.8
2.66	11.06	14.38	685.5	671.4
2.67	11.07	14.35	685.6	672.7
2.68	11.06	14.34	685.6	673.6
2.69	11.05	14.32	685.6	675.3
2.7	11.06	14.31	685.6	677.1
2.71	11.06	14.29	685.7	678.3
2.72	11.05	14.27	685.6	679.0
2.73	11.06	14.26	685.6	681.0
2.74	11.05	14.24	685.7	682.4
2.75	11.07	14.24	686.6	683.6
2.76	11.05	14.23	686.4	684.8
2.77	11.07	14.22	688.8	686.5
2.78	11.08	14.22	692.2	687.1
2.79	11.06	14.18	692.9	688.3
2.8	11.06	14.16	693.0	689.7
2.81	11.07	14.17	696.8	690.2
2.82	11.05	14.15	698.5	690.8
2.83	11.06	14.13	700.0	692.5
2.84	11.06	14.12	699.6	693.0
2.85	11.07	14.11	700.5	694.1
2.86	11.07	14.09	704.7	694.6
2.87	11.06	14.07	705.8	696.5
2.88	11.07	14.06	705.2	697.4
2.89	11.06	14.04	705.5	698.4
2.9	11.05	14.02	710.6	698.9
2.91	11.06	14.01	711.8	700.5
2.92	11.06	13.99	711.6	700.8
2.93	11.07	13.99	713.0	701.9
2.94	11.07	13.99	716.0	703.3
2.95	11.07	13.98	717.0	704.3
2.96	11.07	13.97	717.5	704.9
2.97	11.06	13.95	718.3	706.5
2.98	11.05	13.92	722.0	707.0
2.99	11.06	13.91	723.2	708.4
3.0	11.06	13.9	724.4	709.8
3.01	11.07	13.89	724.8	711.2
3.02	11.05	13.88	727.5	711.7
3.03	11.05	13.86	728.8	713.2
3.04	11.04	13.84	729.8	714.1
3.05	11.05	13.82	730.8	715.6
3.06	11.06	13.82	732.8	716.6
3.07	11.07	13.81	734.4	718.4
3.08	11.06	13.78	735.9	719.2
3.09	11.06	13.78	735.2	720.9
3.1	11.06	13.77	735.9	721.7
3.11	11.06	13.75	739.6	723.2
3.12	11.06	13.74	740.8	724.4
3.13	11.07	13.73	740.4	726.0
3.14	11.08	13.72	743.4	726.9
3.15	11.07	13.71	745.1	728.4
3.16	11.08	13.7	746.4	729.2
3.17	11.06	13.68	747.3	730.5
3.18	11.06	13.67	748.1	731.3
3.19	11.06	13.65	750.3	732.9
3.2	11.07	13.63	751.2	733.8
3.21	11.07	13.62	752.1	735.4
3.22	11.06	13.61	753.3	736.4
3.23	11.06	13.6	755.8	738.0
3.24	11.07	13.59	756.2	738.8
3.25	11.07	13.58	755.5	740.5
3.26	11.08	13.56	758.3	741.2
3.27	11.07	13.55	760.0	742.8
3.28	11.07	13.53	760.9	743.4
3.29	11.06	13.52	761.2	744.5
3.3	11.06	13.5	763.2	745.9
3.31	11.05	13.47	765.4	746.8
3.32	11.06	13.45	766.4	747.7
3.33	11.04	13.44	766.3	748.8
3.34	11.05	13.43	767.9	749.8
3.35	11.06	13.43	770.6	750.5
3.36	11.06	13.41	771.6	751.2
3.37	11.05	13.4	771.2	752.3
3.38	11.06	13.39	772.8	753.0
3.39	11.06	13.37	775.2	754.1
3.4	11.05	13.35	775.8	754.8
3.41	11.07	13.36	775.8	756.2
3.42	11.06	13.35	776.8	756.9
3.43	11.07	13.33	779.8	757.6
3.44	11.04	13.3	780.9	758.6
3.45	11.06	13.29	781.2	759.4
3.46	11.07	13.3	782.5	760.2
3.47	11.08	13.29	784.4	761.6
3.48	11.08	13.27	785.6	762.3
3.49	11.06	13.25	786.6	763.6
3.5	11.07	13.25	786.4	764.7
3.51	11.06	13.22	789.5	765.9
3.52	11.05	13.2	790.1	766.6
3.53	11.06	13.18	790.1	768.3
3.54	11.05	13.18	790.4	769.1
3.55	11.07	13.17	793.6	770.4
3.56	11.06	13.16	794.1	771.1
3.57	11.06	13.14	795.2	772.3
3.58	11.06	13.13	796.2	773.0
3.59	11.05	13.11	797.6	774.3
3.6	11.05	13.1	798.6	775.2
3.61	11.09	13.11	799.0	776.6
3.62	11.06	13.07	798.5	777.2
3.63	11.07	13.07	802.0	778.5
3.64	11.06	13.05	803.5	779.4
3.65	11.07	13.04	804.2	780.5
3.66	11.07	13.03	804.6	781.2
3.67	11.06	13.01	805.9	782.6
3.68	11.07	13.01	807.3	783.3
3.69	11.05	12.98	808.5	784.4
3.7	11.06	12.98	809.4	784.9
3.71	11.07	12.97	810.6	785.8
3.72	11.07	12.96	811.6	786.5
3.73	11.06	12.93	812.4	787.6
3.74	11.05	12.92	812.4	788.0
3.75	11.05	12.91	814.1	789.1
3.76	11.05	12.9	815.8	789.5
3.77	11.06	12.89	816.5	790.6
3.78	11.06	12.88	815.2	791.4
3.79	11.06	12.87	818.5	792.5
3.8	11.05	12.84	819.9	793.2
3.81	11.05	12.82	820.5	794.8
3.82	11.05	12.82	820.5	795.0
3.83	11.06	12.82	822.9	796.3
3.84	11.07	12.81	823.4	797.1
3.85	11.06	12.78	824.3	798.5
3.86	11.05	12.76	824.1	798.9
3.87	11.05	12.75	825.2	800.0
3.88	11.06	12.74	827.4	800.8
3.89	11.06	12.74	827.9	802.2
3.9	11.07	12.73	827.2	802.7
3.91	11.05	12.7	829.9	803.8
3.92	11.06	12.7	831.2	804.4
3.93	11.06	12.69	831.6	805.6
3.94	11.06	12.67	832.0	806.2
3.95	11.06	12.67	833.4	807.0
3.96	11.06	12.64	835.0	808.0
3.97	11.05	12.63	836.4	808.6
3.98	11.05	12.62	836.0	809.0
3.99	11.05	12.6	837.6	810.0
4.0	11.07	12.61	839.1	810.5
4.01	11.06	12.58	839.3	811.3
4.02	11.05	12.57	839.2	811.7
4.03	11.05	12.56	841.5	813.0
4.04	11.06	12.54	842.2	813.4
4.05	11.06	12.55	843.4	814.8
4.06	11.06	12.52	844.4	815.4
4.07	11.05	12.5	845.3	816.2
4.08	11.06	12.5	845.9	816.9
4.09	11.04	12.48	847.1	817.8
4.1	11.06	12.48	848.2	818.3
4.11	11.06	12.47	848.8	819.6
4.12	11.05	12.45	849.5	820.1
4.13	11.06	12.44	850.5	821.1
4.14	11.05	12.42	851.0	821.6
4.15	11.07	12.43	852.8	822.7
4.16	11.06	12.41	853.4	823.3
4.17	11.06	12.39	854.3	824.6
4.18	11.07	12.39	854.5	825.0
4.19	11.06	12.37	856.5	826.0
4.2	11.06	12.36	857.0	826.7
4.21	11.07	12.35	857.1	827.4
4.22	11.06	12.33	857.7	827.8
4.23	11.07	12.33	859.7	828.5
4.24	11.06	12.31	860.1	829.0
4.25	11.06	12.29	861.6	829.8
4.26	11.06	12.29	860.3	830.4
4.27	11.06	12.28	862.9	831.5
4.28	11.06	12.27	863.4	832.1
4.29	11.06	12.25	864.0	833.3
4.3	11.06	12.24	865.3	833.5
4.31	11.05	12.22	866.7	834.8
4.32	11.06	12.22	867.0	835.2
4.33	11.06	12.2	867.8	836.5
4.34	11.05	12.19	868.3	836.9
4.35	11.06	12.19	869.5	837.8
4.36	11.06	12.18	870.6	838.2
4.37	11.05	12.15	870.9	839.4
4.38	11.06	12.15	870.7	839.9
4.39	11.06	12.13	873.1	840.9
4.4	11.06	12.12	873.9	841.6
4.41	11.06	12.11	873.7	842.6
4.42	11.05	12.09	874.3	842.9
4.43	11.05	12.07	875.8	843.7
4.44	11.06	12.08	876.4	843.9
4.45	11.06	12.06	876.6	845.0
4.46	11.06	12.05	877.8	845.1
4.47	11.06	12.04	878.8	845.9
4.48	11.07	12.03	879.2	846.6
4.49	11.06	12.02	879.7	847.9
4.5	11.06	12.0	880.8	848.2
4.51	11.06	12.0	882.0	849.1
4.52	11.06	11.99	882.4	849.6
4.53	11.06	11.98	882.8	851.2
4.54	11.06	11.96	883.9	851.6
4.55	11.06	11.96	885.0	852.4
4.56	11.05	11.93	885.2	852.8
4.57	11.05	11.92	885.6	853.9
4.58	11.06	11.91	887.4	854.0
4.59	11.06	11.91	888.1	855.3
4.6	11.06	11.89	888.4	855.5
4.61	11.05	11.88	889.1	856.6
4.62	11.07	11.88	889.1	856.8
4.63	11.06	11.86	890.8	857.6
4.64	11.06	11.85	891.7	858.0
4.65	11.06	11.83	892.1	858.7
4.66	11.06	11.83	892.6	858.6
4.67	11.06	11.82	893.8	859.7
4.68	11.07	11.81	894.3	860.1
4.69	11.06	11.79	895.0	861.4
4.7	11.06	11.78	895.0	861.7
4.71	11.05	11.76	896.7	862.5
4.72	11.07	11.76	897.3	863.0
4.73	11.05	11.74	897.4	864.6
4.74	11.07	11.74	898.3	864.4
4.75	11.07	11.74	899.3	865.7
4.76	11.06	11.71	899.9	866.0
4.77	11.06	11.7	900.2	867.1
4.78	11.07	11.7	901.4	867.6
4.79	11.05	11.68	902.2	868.7
4.8	11.06	11.67	902.7	869.0
4.81	11.05	11.66	902.6	869.6
4.82	11.05	11.65	903.6	870.0
4.83	11.06	11.64	905.1	870.6
4.84	11.05	11.63	905.4	870.9
4.85	11.06	11.62	906.1	871.5
4.86	11.06	11.61	906.9	871.9
4.87	11.06	11.6	907.5	872.8
4.88	11.06	11.59	908.1	873.3
4.89	11.05	11.57	908.6	874.1
4.9	11.06	11.57	909.4	874.5
4.91	11.05	11.56	910.1	875.4
4.92	11.06	11.55	910.9	876.0
4.93	11.07	11.54	911.0	876.8
4.94	11.05	11.52	912.2	877.0
4.95	11.07	11.52	912.8	878.4
4.96	11.07	11.51	913.3	878.6
4.97	11.06	11.49	913.9	879.6
4.98	11.06	11.48	914.5	879.7
4.99	11.07	11.47	915.4	880.8
5.0	11.05	11.46	915.9	881.3
5.01	11.07	11.46	916.2	881.3
5.02	11.07	11.45	916.9	881.4
5.03	11.06	11.43	917.8	882.4
5.04	11.06	11.42	918.5	882.8
5.05	11.07	11.42	918.3	883.8
5.06	11.05	11.4	919.5	884.0
5.07	11.06	11.39	920.2	884.8
5.08	11.06	11.39	920.9	885.4
5.09	11.06	11.37	921.2	886.6
5.1	11.04	11.35	922.2	886.6
5.11	11.06	11.35	922.7	887.8
5.12	11.05	11.34	922.8	887.8
5.13	11.06	11.33	923.9	889.0
5.14	11.05	11.32	924.0	889.3
5.15	11.06	11.3	925.1	890.0
5.16	11.06	11.29	925.8	890.6
5.17	11.06	11.29	926.1	890.9
5.18	11.05	11.27	927.3	891.2
5.19	11.04	11.27	927.6	891.8
5.2	11.06	11.26	928.2	892.1
5.21	11.05	11.25	928.5	892.9
5.22	11.08	11.25	928.9	893.2
5.23	11.07	11.23	930.0	894.1
5.24	11.06	11.22	930.6	894.5
5.25	11.07	11.22	930.6	895.6
5.26	11.07	11.2	931.7	895.6
5.27	11.06	11.2	932.4	896.5
5.28	11.07	11.18	932.4	896.8
5.29	11.06	11.17	933.4	897.7
5.3	11.06	11.16	934.5	898.0
5.31	11.05	11.14	934.6	898.7
5.32	11.07	11.15	935.3	899.1
5.33	11.04	11.12	935.2	900.2
5.34	11.07	11.12	936.6	900.0
5.35	11.05	11.11	937.0	900.6
5.36	11.04	11.09	937.4	900.3
5.37	11.06	11.09	938.2	901.2
5.38	11.06	11.08	938.4	901.6
5.39	11.05	11.07	939.0	902.5
5.4	11.07	11.07	939.1	903.0
5.41	11.05	11.05	940.0	903.7
5.42	11.06	11.05	941.0	904.0
5.43	11.05	11.03	941.4	905.1
5.44	11.06	11.02	941.2	905.0
5.45	11.07	11.02	942.1	906.1
5.46	11.05	11.0	943.2	906.0
5.47	11.06	10.99	943.3	906.9
5.48	11.07	11.0	943.8	907.1
5.49	11.06	10.97	943.9	908.1
5.5	11.06	10.96	944.7	907.9
5.51	11.06	10.95	945.5	908.6
5.52	11.07	10.95	945.4	908.4
5.53	11.06	10.94	945.7	909.2
5.54	11.04	10.92	946.8	909.1
5.55	11.07	10.93	948.0	910.2
5.56	11.05	10.9	947.2	910.1
5.57	11.06	10.9	948.7	910.9
5.58	11.07	10.9	949.4	911.0
5.59	11.06	10.88	949.6	911.6
5.6	11.07	10.89	949.6	911.8
5.61	11.06	10.87	950.3	912.7
5.62	11.05	10.84	951.2	912.6
5.63	11.06	10.85	951.4	913.7
5.64	11.07	10.84	952.3	913.8
5.65	11.06	10.83	952.2	914.6
5.66	11.06	10.82	953.0	914.9
5.67	11.04	10.8	953.1	915.6
5.68	11.06	10.8	954.2	915.6
5.69	11.05	10.79	955.2	915.9
5.7	11.06	10.78	955.4	915.8
5.71	11.08	10.79	955.6	916.8
5.72	11.05	10.76	955.5	917.0
5.73	11.05	10.74	956.4	917.9
5.74	11.05	10.74	957.0	918.2
5.75	11.06	10.73	957.3	918.8
5.76	11.08	10.74	957.1	919.3
5.77	11.07	10.72	958.6	920.0
5.78	11.05	10.7	959.0	919.8
5.79	11.06	10.69	959.3	920.9
5.8	11.07	10.7	959.3	920.8
5.81	11.07	10.69	960.2	921.7
5.82	11.05	10.67	960.4	921.8
5.83	11.06	10.66	961.4	922.8
5.84	11.05	10.65	961.4	922.9
5.85	11.06	10.65	962.3	923.2
5.86	11.06	10.64	962.8	923.2
5.87	11.06	10.63	963.4	923.6
5.88	11.06	10.62	963.2	924.1
5.89	11.06	10.61	963.6	924.9
5.9	11.05	10.6	964.3	925.0
5.91	11.05	10.59	964.7	926.2
5.92	11.06	10.59	964.8	926.0
5.93	11.05	10.57	965.4	927.0
5.94	11.08	10.58	966.2	926.9
5.95	11.06	10.56	966.9	927.7
5.96	11.06	10.56	966.6	927.9
5.97	11.06	10.54	967.9	928.5
5.98	11.07	10.54	968.3	928.8
5.99	11.05	10.52	968.5	929.7
6.0	11.06	10.52	968.4	929.8
6.01	11.05	10.5	968.8	930.2
6.02	11.06	10.49	969.4	930.2
6.03	11.06	10.49	970.2	930.7
6.04	11.06	10.48	969.8	931.0
6.05	11.05	10.47	971.1	931.8
6.06	11.05	10.46	971.4	931.8
6.07	11.06	10.46	971.7	932.6
6.08	11.06	10.44	971.2	932.5
6.09	11.06	10.44	972.1	933.5
6.1	11.05	10.43	972.6	933.2
6.11	11.05	10.42	973.2	934.5
6.12	11.06	10.41	973.0	934.5
6.13	11.04	10.4	973.2	935.1
6.14	11.05	10.39	974.1	935.2
6.15	11.05	10.39	974.6	935.7
6.16	11.05	10.38	974.6	936.0
6.17	11.04	10.37	975.5	936.7
6.18	11.06	10.36	975.8	936.6
6.19	11.04	10.35	976.4	937.0
6.2	11.06	10.35	976.7	936.8
6.21	11.06	10.34	977.2	937.9
6.22	11.06	10.33	977.7	937.7
6.23	11.06	10.33	977.5	938.4
6.24	11.06	10.31	977.5	938.5
6.25	11.07	10.32	978.8	939.4
6.26	11.06	10.3	979.0	939.6
6.27	11.09	10.31	979.3	940.2
6.28	11.06	10.29	980.0	940.3
6.29	11.08	10.29	980.8	941.0
6.3	11.05	10.27	981.0	941.0
6.31	11.07	10.27	981.2	942.1
6.32	11.06	10.25	981.2	941.8
6.33	11.08	10.26	982.2	942.7
6.34	11.06	10.24	982.1	942.8
6.35	11.07	10.23	982.8	943.1
6.36	11.06	10.23	982.4	943.1
6.37	11.04	10.2	984.0	943.9
6.38	11.07	10.21	983.4	944.0
6.39	11.05	10.19	983.5	944.5
6.4	11.05	10.18	984.0	944.8
6.41	11.08	10.2	984.7	945.4
6.42	11.05	10.17	985.0	945.4
6.43	11.08	10.17	985.2	946.1
6.44	11.04	10.15	985.6	946.2
6.45	11.06	10.14	986.0	946.9
6.46	11.06	10.14	986.4	946.8
6.47	11.06	10.13	987.2	947.6
6.48	11.05	10.12	987.7	947.2
6.49	11.07	10.13	987.8	948.0
6.5	11.05	10.1	988.6	948.1
6.51	11.06	10.1	988.1	948.6
6.52	11.06	10.1	988.8	948.6
6.53	11.07	10.09	989.3	948.9
6.54	11.06	10.07	989.5	948.8
6.55	11.06	10.07	989.8	949.4
6.56	11.07	10.07	990.5	949.4
6.57	11.07	10.06	990.7	950.1
6.58	11.06	10.04	990.9	950.3
6.59	11.06	10.05	991.2	951.1
6.6	11.07	10.05	991.6	950.8
6.61	11.06	10.03	991.8	951.6
6.62	11.06	10.02	992.1	951.4
6.63	11.05	10.01	992.6	952.0
6.64	11.06	10.0	993.0	952.0
6.65	11.06	10.0	993.6	952.8
6.66	11.07	9.99	992.9	952.8
6.67	11.04	9.97	993.8	953.6
6.68	11.05	9.96	994.2	953.4
6.69	11.05	9.96	994.8	954.0
6.7	11.07	9.97	994.5	954.2
6.71	11.07	9.97	995.7	954.2
6.72	11.05	9.94	995.6	954.2
6.73	11.04	9.93	996.1	954.8
6.74	11.05	9.92	996.2	955.0
6.75	11.05	9.92	996.7	955.8
6.76	11.06	9.91	996.8	955.4
6.77	11.07	9.92	997.3	956.4
6.78	11.06	9.91	996.8	956.3
6.79	11.08	9.91	997.9	957.0
6.8	11.07	9.89	998.0	956.6
6.81	11.06	9.88	998.4	957.7
6.82	11.05	9.87	998.5	957.4
6.83	11.05	9.86	999.4	958.3
6.84	11.06	9.85	999.4	958.3
6.85	11.05	9.85	999.7	959.1
6.86	11.06	9.85	999.4	958.9
6.87	11.07	9.85	1000.2	959.7
6.88	11.07	9.84	1000.4	959.5
6.89	11.05	9.82	1000.8	960.0
6.9	11.05	9.81	1000.7	959.8
6.91	11.04	9.79	1001.6	960.5
6.92	11.06	9.8	1001.6	960.5
6.93	11.06	9.79	1001.7	961.4
6.94	11.06	9.79	1002.4	961.3
6.95	11.06	9.78	1003.5	961.9
6.96	11.07	9.78	1002.9	962.0
6.97	11.07	9.77	1003.3	962.6
6.98	11.07	9.77	1003.4	962.8
6.99	11.05	9.75	1004.1	963.3
7.0	11.06	9.74	1003.9	963.2
7.01	11.06	9.73	1004.4	964.2
7.02	11.04	9.72	1004.7	963.9
7.03	11.05	9.72	1005.0	964.5
7.04	11.05	9.71	1005.1	964.7
7.05	11.07	9.71	1005.2	965.2
7.06	11.08	9.72	1005.7	965.2
7.07	11.07	9.7	1006.3	965.6
7.08	11.07	9.7	1006.6	965.4
7.09	11.06	9.68	1006.5	966.0
7.1	11.04	9.67	1007.0	966.0
7.11	11.05	9.66	1007.4	966.4
7.12	11.04	9.65	1007.6	966.6
7.13	11.05	9.65	1007.8	967.3
7.14	11.04	9.64	1008.3	966.9
7.15	11.05	9.64	1008.7	967.6
7.16	11.06	9.65	1008.0	967.5
7.17	11.07	9.63	1008.6	968.2
7.18	11.07	9.64	1009.4	968.4
7.19	11.06	9.62	1009.5	968.6
7.2	11.07	9.61	1009.5	968.7
7.21	11.07	9.61	1009.8	969.3
7.22	11.05	9.59	1010.5	969.3
7.23	11.05	9.58	1011.0	969.4
7.24	11.04	9.57	1010.9	969.6
7.25	11.04	9.57	1012.1	969.8
7.26	11.06	9.56	1012.7	970.2
7.27	11.04	9.55	1012.1	970.3
7.28	11.04	9.55	1012.6	970.6
7.29	11.05	9.54	1012.8	971.0
7.3	11.06	9.54	1013.1	971.2
7.31	11.06	9.54	1013.5	971.7
7.32	11.05	9.53	1013.6	971.6
7.33	11.05	9.52	1013.9	972.1
7.34	11.06	9.51	1013.9	972.4
7.35	11.05	9.5	1014.1	973.3
7.36	11.05	9.5	1014.6	972.9
7.37	11.05	9.49	1015.0	973.5
7.38	11.05	9.48	1015.3	973.2
7.39	11.05	9.48	1015.3	974.0
7.4	11.05	9.47	1015.4	973.9
7.41	11.06	9.47	1015.4	974.1
7.42	11.06	9.47	1015.9	974.3
7.43	11.06	9.46	1016.3	974.4
7.44	11.07	9.46	1016.1	974.1
7.45	11.06	9.45	1016.6	974.7
7.46	11.07	9.45	1017.3	974.5
7.47	11.06	9.45	1017.3	974.7
7.48	11.07	9.44	1017.4	974.6
7.49	11.07	9.43	1017.7	975.0
7.5	11.06	9.42	1017.9	975.2
7.51	11.05	9.41	1018.2	975.7
7.52	11.05	9.4	1018.3	975.7
7.53	11.05	9.39	1019.1	976.4
7.54	11.05	9.38	1019.5	976.3
7.55	11.05	9.38	1019.4	977.3
7.56	11.04	9.36	1019.3	976.8
7.57	11.04	9.36	1020.1	977.4
7.58	11.05	9.36	1020.4	977.6
7.59	11.05	9.35	1020.5	977.9
7.6	11.06	9.35	1020.6	978.0
7.61	11.05	9.34	1021.2	978.3
7.62	11.06	9.34	1021.2	978.2
7.63	11.06	9.34	1021.1	978.9
7.64	11.07	9.34	1020.9	979.0
7.65	11.07	9.33	1021.8	979.2
7.66	11.06	9.32	1021.8	979.3
7.67	11.06	9.31	1022.0	980.0
7.68	11.05	9.3	1022.2	979.8
7.69	11.04	9.28	1022.8	980.6
7.7	11.04	9.28	1023.0	980.7
7.71	11.04	9.27	1023.2	981.1
7.72	11.05	9.28	1023.3	980.9
7.73	11.07	9.28	1023.6	981.8
7.74	11.06	9.28	1024.1	981.6
7.75	11.08	9.27	1023.9	982.3
7.76	11.05	9.25	1023.5	982.4
7.77	11.05	9.24	1024.6	983.0
7.78	11.04	9.23	1024.8	982.7
7.79	11.04	9.23	1025.0	983.0
7.8	11.06	9.24	1025.3	983.2
7.81	11.07	9.23	1026.2	983.6
7.82	11.06	9.23	1026.0	983.5
7.83	11.06	9.21	1026.1	984.0
7.84	11.04	9.2	1025.6	983.9
7.85	11.06	9.2	1027.1	984.2
7.86	11.07	9.21	1026.8	984.2
7.87	11.07	9.19	1027.2	984.5
7.88	11.05	9.19	1027.2	984.2
7.89	11.04	9.17	1027.7	984.6
7.9	11.04	9.17	1027.8	984.5
7.91	11.06	9.17	1028.0	985.2
7.92	11.06	9.17	1027.9	984.9
7.93	11.07	9.17	1028.9	985.6
7.94	11.05	9.15	1028.3	985.5
7.95	11.05	9.14	1029.1	986.3
7.96	11.04	9.13	1029.5	986.0
7.97	11.05	9.13	1029.9	986.6
7.98	11.06	9.13	1030.0	986.4
7.99	11.07	9.13	1029.4	987.0
8.0	11.05	9.12	1030.0	987.0
8.01	11.05	9.11	1030.8	987.5
8.02	11.06	9.11	1030.3	987.4
8.03	11.06	9.11	1030.7	987.5
8.04	11.07	9.1	1030.9	987.6
8.05	11.05	9.09	1031.6	988.0
8.06	11.06	9.08	1031.3	988.0
8.07	11.06	9.08	1031.5	988.6
8.08	11.07	9.08	1031.5	988.5
8.09	11.06	9.07	1032.7	988.9
8.1	11.06	9.06	1032.4	989.0
8.11	11.06	9.05	1032.7	989.4
8.12	11.07	9.06	1032.2	989.2
8.13	11.06	9.05	1033.5	989.8
8.14	11.06	9.04	1033.6	989.8
8.15	11.04	9.02	1033.7	990.3
8.16	11.07	9.03	1033.7	990.2
8.17	11.07	9.04	1034.0	990.6
8.18	11.07	9.02	1034.3	990.6
8.19	11.07	9.02	1034.5	990.7
8.2	11.05	9.0	1035.0	990.9
8.21	11.05	8.99	1035.0	991.3
8.22	11.06	9.0	1035.2	991.2
8.23	11.06	9.0	1035.4	991.5
8.24	11.06	8.99	1035.7	992.0
8.25	11.05	8.98	1035.9	992.2
8.26	11.06	8.97	1035.9	992.2
8.27	11.07	8.98	1036.3	992.6
8.28	11.04	8.96	1036.8	992.5
8.29	11.05	8.95	1036.8	993.0
8.3	11.07	8.96	1036.9	993.0
8.31	11.06	8.95	1037.0	993.2
8.32	11.04	8.94	1037.1	993.4
8.33	11.06	8.94	1038.1	993.7
8.34	11.06	8.93	1037.9	993.8
8.35	11.06	8.93	1037.8	994.0
8.36	11.06	8.92	1038.3	994.1
8.37	11.07	8.92	1038.6	994.6
8.38	11.05	8.91	1038.2	994.4
8.39	11.07	8.91	1038.2	994.8
8.4	11.07	8.91	1038.1	994.8
8.41	11.06	8.89	1039.6	995.3
8.42	11.06	8.89	1039.2	995.4
8.43	11.07	8.89	1039.5	995.6
8.44	11.05	8.87	1039.7	995.6
8.45	11.05	8.87	1040.2	996.2
8.46	11.06	8.87	1039.7	996.3
8.47	11.05	8.86	1040.2	996.4
8.48	11.05	8.85	1039.7	996.5
8.49	11.06	8.86	1040.7	996.6
8.5	11.06	8.85	1040.8	996.6
8.51	11.05	8.84	1041.4	997.0
8.52	11.06	8.84	1040.9	996.5
8.53	11.06	8.84	1042.0	997.4
8.54	11.04	8.82	1041.7	996.9
8.55	11.07	8.83	1041.8	997.6
8.56	11.05	8.82	1041.1	997.3
8.57	11.06	8.82	1042.0	997.6
8.58	11.07	8.82	1042.5	997.5
8.59	11.06	8.8	1042.8	998.3
8.6	11.06	8.8	1042.2	997.9
8.61	11.05	8.79	1043.1	998.4
8.62	11.06	8.78	1042.8	998.4
8.63	11.07	8.79	1043.5	998.7
8.64	11.05	8.77	1044.0	998.7
8.65	11.07	8.78	1044.3	998.9
8.66	11.06	8.77	1043.9	998.9
8.67	11.06	8.76	1044.1	999.4
8.68	11.07	8.76	1044.1	999.3
8.69	11.05	8.75	1045.1	999.8
8.7	11.06	8.75	1045.1	999.7
8.71	11.06	8.75	1045.3	1000.1
8.72	11.05	8.74	1045.5	999.7
8.73	11.06	8.74	1045.7	1000.2
8.74	11.05	8.73	1045.6	1000.1
8.75	11.07	8.73	1045.6	1000.5
8.76	11.07	8.73	1046.2	1000.7
8.77	11.05	8.71	1046.3	1000.9
8.78	11.07	8.71	1046.2	1000.9
8.79	11.05	8.7	1046.6	1001.3
8.8	11.06	8.7	1046.4	1001.6
8.81	11.06	8.7	1047.0	1001.6
8.82	11.06	8.69	1046.9	1001.6
8.83	11.06	8.68	1046.8	1002.0
8.84	11.06	8.68	1047.1	1002.1
8.85	11.06	8.68	1047.6	1002.4
8.86	11.06	8.68	1047.6	1002.2
8.87	11.07	8.67	1047.7	1002.6
8.88	11.05	8.65	1048.3	1002.4
8.89	11.07	8.66	1048.5	1002.7
8.9	11.06	8.65	1048.5	1002.7
8.91	11.05	8.65	1048.2	1003.1
8.92	11.07	8.65	1049.1	1002.8
8.93	11.06	8.64	1049.1	1003.2
8.94	11.06	8.63	1048.9	1003.2
8.95	11.06	8.63	1049.7	1003.6
8.96	11.06	8.63	1049.8	1003.5
8.97	11.07	8.63	1049.6	1003.8
8.98	11.06	8.62	1049.9	1003.4
8.99	11.06	8.61	1050.0	1003.8
9.0	11.07	8.61	1050.5	1003.6
9.01	11.06	8.6	1050.6	1003.7
9.02	11.06	8.6	1051.1	1004.0
9.03	11.05	8.59	1050.8	1004.2
9.04	11.07	8.59	1051.0	1004.2
9.05	11.06	8.58	1051.3	1004.8
9.06	11.06	8.58	1050.9	1004.6
9.07	11.05	8.57	1051.6	1005.3
9.08	11.05	8.57	1051.6	1005.3
9.09	11.06	8.56	1051.8	1005.5
9.1	11.06	8.57	1051.7	1005.7
9.11	11.07	8.56	1052.7	1005.9
9.12	11.06	8.55	1052.5	1005.8
9.13	11.07	8.55	1052.6	1006.1
9.14	11.06	8.54	1052.6	1006.1
9.15	11.07	8.54	1053.1	1006.3
9.16	11.06	8.54	1052.8	1006.2
9.17	11.06	8.53	1053.0	1006.8
9.18	11.06	8.53	1052.0	1006.5
9.19	11.06	8.51	1053.4	1006.7
9.2	11.07	8.52	1053.7	1006.9
9.21	11.05	8.5	1053.8	1007.0
9.22	11.06	8.51	1053.4	1006.9
9.23	11.07	8.51	1053.9	1007.4
9.24	11.06	8.5	1054.1	1007.2
9.25	11.07	8.5	1054.2	1007.3
9.26	11.05	8.49	1054.4	1007.5
9.27	11.07	8.49	1054.8	1007.9
9.28	11.06	8.48	1055.1	1007.9
9.29	11.06	8.48	1055.6	1008.1
9.3	11.06	8.47	1054.9	1008.2
9.31	11.06	8.47	1056.2	1008.6
9.32	11.07	8.47	1055.7	1008.4
9.33	11.06	8.46	1056.3	1008.8
9.34	11.06	8.46	1056.0	1008.7
9.35	11.05	8.45	1056.9	1009.0
9.36	11.06	8.45	1056.3	1009.0
9.37	11.06	8.44	1057.1	1009.3
9.38	11.07	8.44	1056.2	1009.2
9.39	11.06	8.43	1056.7	1009.4
9.4	11.05	8.42	1056.7	1009.3
9.41	11.06	8.43	1057.4	1009.7
9.42	11.06	8.42	1057.1	1009.3
9.43	11.06	8.42	1057.8	1009.9
9.44	11.07	8.41	1057.6	1009.7
9.45	11.06	8.41	1058.0	1010.4
9.46	11.06	8.41	1057.7	1009.8
9.47	11.05	8.4	1058.3	1010.3
9.48	11.07	8.4	1058.3	1010.2
9.49	11.06	8.39	1058.2	1010.3
9.5	11.06	8.39	1058.1	1010.2
9.51	11.06	8.39	1059.1	1010.6
9.52	11.06	8.38	1059.2	1010.4
9.53	11.06	8.38	1059.1	1010.7
9.54	11.06	8.37	1059.2	1010.7
9.55	11.05	8.37	1059.7	1010.9
9.56	11.06	8.37	1059.6	1010.9
9.57	11.06	8.36	1060.3	1011.4
9.58	11.06	8.36	1059.5	1011.4
9.59	11.06	8.35	1059.9	1011.5
9.6	11.07	8.35	1060.5	1011.4
9.61	11.05	8.34	1060.6	1011.9
9.62	11.06	8.34	1060.0	1011.8
9.63	11.05	8.33	1060.8	1012.1
9.64	11.06	8.33	1060.8	1011.8
9.65	11.06	8.33	1061.2	1012.0
9.66	11.07	8.32	1061.0	1012.1
9.67	11.05	8.32	1061.7	1012.3
9.68	11.06	8.31	1061.5	1012.2
9.69	11.05	8.31	1061.8	1012.5
9.7	11.06	8.3	1061.4	1012.6
9.71	11.06	8.3	1061.8	1013.0
9.72	11.07	8.3	1061.3	1012.7
9.73	11.06	8.3	1061.5	1013.1
9.74	11.06	8.29	1061.1	1013.0
9.75	11.06	8.29	1061.0	1013.2
9.76	11.06	8.29	1060.5	1013.0
9.77	11.06	8.28	1061.0	1013.2
9.78	11.05	8.27	1059.8	1013.2
9.79	11.07	8.27	1060.3	1013.3
9.8	11.05	8.27	1060.3	1013.3
9.81	11.05	8.26	1060.8	1013.2
9.82	11.05	8.26	1061.8	1013.7
9.83	11.06	8.26	1062.7	1013.9
9.84	11.05	8.25	1062.9	1013.8
9.85	11.05	8.25	1063.4	1014.3
9.86	11.06	8.24	1063.4	1014.2
9.87	11.06	8.24	1064.1	1014.2
9.88	11.06	8.24	1064.0	1014.4
9.89	11.06	8.23	1063.9	1014.7
9.9	11.06	8.23	1064.2	1014.8
9.91	11.07	8.23	1064.9	1014.8
9.92	11.07	8.23	1064.4	1014.9
9.93	11.07	8.22	1065.0	1015.3
9.94	11.05	8.21	1064.5	1015.3
9.95	11.07	8.21	1064.9	1015.6
9.96	11.06	8.21	1064.2	1015.3
9.97	11.06	8.2	1064.7	1015.7
9.98	11.05	8.2	1064.9	1015.7
9.99	11.07	8.2	1065.0	1015.9
10.0	11.07	8.2	1064.6	1015.8
10.01	11.06	8.19	1064.8	1016.0
10.02	11.05	8.18	1065.5	1015.8
10.03	11.05	8.18	1065.1	1016.2
10.04	11.06	8.18	1065.7	1016.1
10.05	11.07	8.17	1065.4	1016.4
10.06	11.05	8.16	1065.9	1016.4
10.07	11.06	8.16	1066.3	1016.6
10.08	11.06	8.17	1066.5	1016.6
10.09	11.05	8.15	1067.1	1016.9
10.1	11.06	8.15	1067.1	1016.8
10.11	11.06	8.15	1067.2	1017.1
10.12	11.06	8.15	1066.7	1017.0
10.13	11.06	8.14	1066.8	1017.2
10.14	11.06	8.14	1067.2	1017.3
10.15	11.05	8.13	1067.5	1017.4
10.16	11.06	8.13	1067.2	1017.1
10.17	11.06	8.13	1067.4	1017.4
10.18	11.07	8.13	1067.7	1017.4
10.19	11.05	8.12	1068.4	1017.5
10.2	11.05	8.11	1068.6	1017.5
10.21	11.06	8.11	1068.7	1017.7
10.22	11.07	8.11	1068.8	1017.6
10.23	11.07	8.11	1069.3	1017.7
10.24	11.07	8.1	1068.8	1017.9
10.25	11.05	8.09	1069.0	1018.0
10.26	11.06	8.09	1069.7	1018.0
10.27	11.06	8.09	1070.0	1018.3
10.28	11.06	8.09	1070.2	1018.3
10.29	11.07	8.09	1070.1	1018.5
10.3	11.07	8.08	1069.9	1018.6
10.31	11.07	8.08	1070.4	1018.6
10.32	11.06	8.08	1070.2	1018.6
10.33	11.05	8.06	1070.4	1018.8
10.34	11.06	8.06	1070.4	1019.0
10.35	11.06	8.06	1071.2	1019.2
10.36	11.07	8.06	1071.0	1019.0
10.37	11.06	8.06	1071.6	1019.3
10.38	11.06	8.05	1071.5	1019.1
10.39	11.05	8.05	1071.6	1019.4
10.4	11.06	8.04	1072.0	1019.4
10.41	11.05	8.04	1072.0	1019.5
10.42	11.07	8.04	1071.8	1019.7
10.43	11.06	8.04	1072.3	1019.6
10.44	11.06	8.03	1071.9	1020.0
10.45	11.05	8.02	1072.5	1020.0
10.46	11.05	8.02	1072.4	1019.9
10.47	11.05	8.02	1072.7	1020.2
10.48	11.06	8.02	1072.5	1020.0
10.49	11.07	8.02	1072.6	1020.3
10.5	11.07	8.01	1072.9	1020.0
10.51	11.06	8.01	1073.7	1020.5
10.52	11.06	8.01	1072.9	1020.4
10.53	11.06	8.0	1074.2	1020.5
10.54	11.06	8.0	1073.3	1020.5
10.55	11.07	8.0	1073.6	1020.8
10.56	11.05	7.99	1073.2	1020.6
10.57	11.06	7.99	1074.1	1021.1
10.58	11.06	7.98	1074.1	1020.8
10.59	11.07	7.98	1074.4	1021.1
10.6	11.05	7.98	1074.1	1021.1
10.61	11.06	7.97	1075.0	1021.4
10.62	11.05	7.97	1074.7	1021.4
10.63	11.07	7.97	1074.7	1021.3
10.64	11.05	7.96	1074.5	1021.4
10.65	11.06	7.96	1075.5	1021.6
10.66	11.06	7.96	1075.2	1021.6
10.67	11.06	7.95	1075.6	1021.7
10.68	11.06	7.95	1075.3	1021.9
10.69	11.07	7.95	1075.7	1021.8
10.7	11.06	7.94	1075.2	1022.2
10.71	11.06	7.94	1075.9	1022.2
10.72	11.06	7.93	1075.5	1022.3
10.73	11.06	7.93	1076.1	1022.3
10.74	11.06	7.93	1076.1	1022.3
10.75	11.06	7.93	1076.8	1022.4
10.76	11.06	7.92	1076.5	1022.8
10.77	11.06	7.91	1077.4	1022.7
10.78	11.06	7.92	1077.3	1022.9
10.79	11.05	7.91	1077.2	1023.1
10.8	11.05	7.91	1076.8	1023.0
10.81	11.05	7.91	1078.1	1023.4
10.82	11.05	7.9	1077.9	1023.2
10.83	11.06	7.9	1077.6	1023.1
10.84	11.06	7.9	1077.7	1023.2
10.85	11.05	7.89	1078.5	1023.3
10.86	11.06	7.89	1078.4	1023.2
10.87	11.06	7.89	1078.4	1023.4
10.88	11.07	7.89	1077.8	1023.6
10.89	11.07	7.89	1078.5	1023.8
10.9	11.06	7.88	1078.7	1023.7
10.91	11.07	7.88	1078.8	1023.8
10.92	11.07	7.88	1078.5	1023.7
10.93	11.07	7.87	1079.0	1023.8
10.94	11.07	7.87	1078.6	1024.0
10.95	11.06	7.86	1079.0	1024.0
10.96	11.07	7.86	1079.2	1024.2
10.97	11.06	7.85	1079.2	1024.3
10.98	11.06	7.85	1079.0	1024.2
10.99	11.05	7.85	1079.0	1024.4
11.0	11.06	7.84	1079.6	1024.2
11.01	11.05	7.84	1079.5	1024.3
11.02	11.06	7.84	1080.0	1024.5
11.03	11.05	7.84	1079.8	1024.6
11.04	11.06	7.84	1080.3	1024.4
11.05	11.06	7.83	1080.4	1024.7
11.06	11.06	7.83	1080.3	1024.7
11.07	11.07	7.83	1079.9	1024.8
11.08	11.06	7.83	1080.4	1024.7
11.09	11.07	7.83	1080.8	1025.1
11.1	11.07	7.82	1080.8	1025.0
11.11	11.06	7.81	1080.6	1025.2
11.12	11.06	7.81	1081.0	1025.0
11.13	11.05	7.8	1081.1	1025.4
11.14	11.05	7.8	1080.9	1025.4
11.15	11.06	7.8	1081.2	1025.4
11.16	11.05	7.79	1081.0	1025.4
11.17	11.06	7.79	1081.5	1025.7
11.18	11.05	7.79	1081.1	1025.7
11.19	11.06	7.79	1081.5	1025.6
11.2	11.07	7.79	1082.0	1025.5
11.21	11.07	7.78	1081.9	1025.8
11.22	11.07	7.78	1081.8	1026.1
11.23	11.05	7.77	1081.9	1026.1
11.24	11.06	7.77	1082.0	1026.0
11.25	11.07	7.77	1082.2	1026.3
11.26	11.06	7.77	1081.6	1026.0
11.27	11.06	7.76	1082.0	1026.5
11.28	11.06	7.76	1082.6	1026.1
11.29	11.06	7.75	1082.4	1026.4
11.3	11.06	7.75	1082.4	1026.4
11.31	11.06	7.75	1082.3	1026.5
11.32	11.05	7.74	1083.0	1026.5
11.33	11.05	7.74	1082.9	1026.7
11.34	11.05	7.74	1083.2	1026.8
11.35	11.06	7.74	1082.8	1026.9
11.36	11.06	7.74	1083.0	1026.8
11.37	11.07	7.74	1083.7	1027.2
11.38	11.07	7.74	1083.5	1027.0
11.39	11.05	7.72	1084.1	1027.2
11.4	11.06	7.72	1084.4	1027.2
11.41	11.06	7.72	1084.6	1027.4
11.42	11.05	7.72	1084.7	1027.2
11.43	11.07	7.72	1084.9	1027.4
11.44	11.07	7.71	1084.1	1027.5
11.45	11.06	7.71	1084.6	1027.6
11.46	11.06	7.7	1084.6	1027.8
11.47	11.04	7.69	1084.8	1027.8
11.48	11.06	7.7	1084.9	1027.8
11.49	11.06	7.7	1085.3	1028.0
11.5	11.07	7.7	1085.1	1028.0
11.51	11.06	7.69	1085.9	1028.3
11.52	11.07	7.69	1085.4	1028.1
11.53	11.07	7.69	1085.8	1028.5
11.54	11.07	7.69	1085.5	1028.2
11.55	11.06	7.68	1086.0	1028.5
11.56	11.06	7.68	1085.5	1028.3
11.57	11.05	7.67	1086.0	1028.2
11.58	11.05	7.67	1085.7	1028.3
11.59	11.05	7.67	1086.2	1028.6
11.6	11.07	7.67	1086.6	1028.4
11.61	11.07	7.67	1086.5	1028.7
11.62	11.07	7.67	1086.1	1028.8
11.63	11.06	7.66	1086.7	1028.9
11.64	11.06	7.65	1086.0	1028.9
11.65	11.06	7.65	1086.2	1029.2
11.66	11.08	7.66	1086.3	1029.2
11.67	11.06	7.65	1086.9	1029.3
11.68	11.06	7.64	1086.9	1029.3
11.69	11.05	7.64	1087.0	1029.1
11.7	11.05	7.63	1087.3	1029.2
11.71	11.06	7.64	1087.7	1029.2
11.72	11.07	7.64	1087.8	1029.3
11.73	11.06	7.63	1088.2	1029.4
11.74	11.06	7.63	1087.9	1029.4
11.75	11.05	7.62	1088.7	1029.6
11.76	11.07	7.62	1088.6	1029.7
11.77	11.06	7.62	1088.9	1029.7
11.78	11.05	7.61	1088.9	1029.9
11.79	11.05	7.6	1089.1	1030.2
11.8	11.05	7.6	1089.0	1029.9
11.81	11.05	7.6	1088.9	1030.0
11.82	11.06	7.6	1088.7	1030.1
11.83	11.06	7.6	1089.0	1029.9
11.84	11.07	7.61	1089.3	1030.1
11.85	11.07	7.6	1089.6	1030.0
11.86	11.06	7.59	1089.4	1029.9
11.87	11.07	7.59	1089.6	1030.4
11.88	11.05	7.59	1089.4	1030.0
11.89	11.06	7.58	1090.2	1030.4
11.9	11.06	7.58	1089.7	1030.2
11.91	11.06	7.58	1090.5	1030.4
11.92	11.05	7.58	1090.2	1030.3
11.93	11.06	7.57	1090.3	1030.7
11.94	11.06	7.57	1090.3	1030.6
11.95	11.07	7.57	1090.8	1030.6
11.96	11.05	7.56	1090.4	1030.9
11.97	11.07	7.56	1090.0	1030.6
11.98	11.06	7.56	1090.7	1030.8
11.99	11.06	7.55	1091.3	1030.8
12.0	11.06	7.56	1091.0	1030.7
12.01	11.07	7.55	1091.2	1030.8
12.02	11.06	7.55	1091.3	1030.9
12.03	11.07	7.55	1091.5	1031.2
12.04	11.05	7.54	1091.3	1031.3
12.05	11.05	7.54	1091.2	1031.2
12.06	11.05	7.54	1092.0	1031.0
12.07	11.06	7.54	1092.0	1031.4
12.08	11.05	7.53	1092.2	1031.3
12.09	11.05	7.53	1092.0	1031.8
12.1	11.06	7.53	1092.3	1031.2
12.11	11.06	7.53	1092.4	1031.4
12.12	11.05	7.52	1092.1	1031.4
12.13	11.06	7.52	1092.3	1031.7
12.14	11.05	7.52	1092.0	1031.6
12.15	11.07	7.52	1092.9	1031.9
12.16	11.06	7.51	1092.8	1032.0
12.17	11.06	7.51	1093.4	1031.8
12.18	11.06	7.51	1093.1	1032.0
12.19	11.06	7.51	1093.3	1031.8
12.2	11.07	7.51	1093.0	1032.0
12.21	11.06	7.5	1092.8	1031.9
12.22	11.06	7.5	1093.0	1032.2
12.23	11.07	7.5	1093.4	1032.2
12.24	11.07	7.49	1093.8	1032.3
12.25	11.05	7.48	1093.2	1032.3
12.26	11.06	7.49	1093.8	1032.2
12.27	11.05	7.48	1094.1	1032.5
12.28	11.06	7.49	1093.8	1032.4
12.29	11.06	7.48	1093.9	1032.8
12.3	11.06	7.48	1094.0	1032.3
12.31	11.06	7.48	1093.8	1032.5
12.32	11.06	7.47	1093.2	1032.6
12.33	11.06	7.47	1093.5	1032.6
12.34	11.06	7.47	1094.4	1032.7
12.35	11.06	7.47	1094.7	1032.6
12.36	11.06	7.46	1094.9	1032.4
12.37	11.05	7.46	1095.3	1032.7
12.38	11.06	7.46	1095.0	1032.7
12.39	11.06	7.46	1095.1	1032.9
12.4	11.07	7.46	1095.0	1032.8
12.41	11.06	7.45	1094.7	1032.9
12.42	11.06	7.45	1095.2	1032.7
12.43	11.06	7.44	1095.8	1033.0
12.44	11.07	7.45	1095.8	1033.0
12.45	11.05	7.43	1095.4	1033.1
12.46	11.06	7.44	1096.1	1033.1
12.47	11.06	7.44	1096.1	1033.2
12.48	11.07	7.43	1096.6	1033.1
12.49	11.06	7.43	1096.5	1033.2
12.5	11.06	7.42	1096.3	1032.8
12.51	11.07	7.43	1096.2	1033.3
12.52	11.07	7.43	1096.3	1033.1
12.53	11.05	7.42	1096.6	1033.4
12.54	11.06	7.42	1096.7	1033.5
12.55	11.06	7.42	1097.0	1033.4
12.56	11.05	7.41	1097.2	1033.5
12.57	11.06	7.41	1097.3	1033.6
12.58	11.06	7.41	1097.0	1033.8
12.59	11.07	7.41	1097.2	1033.8
12.6	11.06	7.4	1097.3	1033.7
12.61	11.06	7.4	1097.0	1033.9
12.62	11.06	7.4	1097.6	1034.0
12.63	11.05	7.39	1097.5	1034.0
12.64	11.06	7.4	1097.6	1034.2
12.65	11.06	7.39	1097.9	1034.0
12.66	11.06	7.39	1097.8	1034.1
12.67	11.06	7.39	1098.0	1034.2
12.68	11.06	7.39	1097.5	1034.1
12.69	11.05	7.38	1097.8	1034.2
12.7	11.06	7.38	1098.0	1034.2
12.71	11.06	7.37	1098.8	1034.4
12.72	11.06	7.38	1098.6	1034.2
12.73	11.06	7.37	1098.3	1034.4
12.74	11.05	7.37	1098.4	1034.3
12.75	11.07	7.37	1099.1	1034.3
12.76	11.05	7.36	1099.0	1034.7
12.77	11.07	7.37	1098.9	1034.6
12.78	11.05	7.36	1099.4	1034.5
12.79	11.07	7.36	1099.5	1034.7
12.8	11.06	7.36	1099.3	1035.0
12.81	11.06	7.36	1099.4	1034.7
12.82	11.06	7.35	1099.3	1034.8
12.83	11.06	7.35	1099.6	1035.0
12.84	11.05	7.35	1099.2	1035.0
12.85	11.05	7.34	1099.9	1035.0
12.86	11.06	7.35	1099.7	1034.8
12.87	11.05	7.34	1100.2	1034.9
12.88	11.06	7.34	1099.6	1034.8
12.89	11.05	7.33	1099.8	1035.0
12.9	11.07	7.33	1100.0	1035.0
12.91	11.05	7.33	1100.1	1035.2
12.92	11.06	7.33	1099.9	1034.9
12.93	11.06	7.33	1100.5	1035.0
12.94	11.07	7.32	1100.4	1035.3
12.95	11.07	7.32	1100.6	1035.3
12.96	11.06	7.32	1100.0	1035.1
12.97	11.05	7.32	1100.9	1035.2
12.98	11.06	7.31	1101.3	1035.3
12.99	11.06	7.31	1101.2	1035.4
13.0	11.05	7.3	1101.2	1035.2
13.01	11.06	7.31	1100.9	1035.4
13.02	11.05	7.3	1101.2	1035.5
13.03	11.07	7.31	1102.3	1035.6
13.04	11.05	7.29	1101.8	1035.4
13.05	11.06	7.3	1101.5	1035.8
13.06	11.06	7.3	1101.8	1035.5
13.07	11.05	7.29	1101.6	1035.8
13.08	11.07	7.3	1101.7	1035.9
13.09	11.06	7.29	1102.3	1035.7
13.1	11.06	7.29	1101.9	1035.7
13.11	11.05	7.29	1102.4	1035.7
13.12	11.06	7.28	1101.8	1036.0
13.13	11.06	7.28	1102.2	1036.0
13.14	11.07	7.28	1102.5	1036.0
13.15	11.05	7.27	1102.8	1036.2
13.16	11.06	7.27	1102.0	1036.2
13.17	11.06	7.27	1102.8	1036.3
13.18	11.06	7.27	1102.8	1036.2
13.19	11.06	7.27	1103.2	1036.3
13.2	11.07	7.26	1102.6	1035.8
13.21	11.05	7.26	1103.2	1036.2
13.22	11.07	7.26	1103.0	1036.3
13.23	11.05	7.25	1103.0	1036.3
13.24	11.07	7.26	1103.0	1036.2
13.25	11.06	7.26	1103.3	1036.2
13.26	11.05	7.25	1103.2	1036.2
13.27	11.07	7.25	1103.3	1036.5
13.28	11.06	7.25	1102.8	1036.4
13.29	11.07	7.25	1103.4	1036.4
13.3	11.07	7.25	1103.4	1036.6
13.31	11.06	7.24	1103.4	1036.7
13.32	11.07	7.25	1103.3	1036.8
13.33	11.06	7.23	1103.6	1036.6
13.34	11.05	7.23	1103.6	1036.7
13.35	11.06	7.23	1104.0	1036.9
13.36	11.05	7.23	1104.2	1036.8
13.37	11.07	7.23	1104.0	1037.0
13.38	11.06	7.23	1104.4	1037.0
13.39	11.06	7.23	1105.0	1036.8
13.4	11.05	7.22	1104.5	1036.8
13.41	11.06	7.22	1105.0	1037.0
13.42	11.06	7.22	1104.8	1036.9
13.43	11.06	7.21	1104.9	1037.1
13.44	11.05	7.21	1105.4	1037.1
13.45	11.06	7.21	1105.6	1037.2
13.46	11.06	7.21	1105.5	1037.2
13.47	11.06	7.21	1105.7	1037.3
13.48	11.06	7.2	1105.5	1037.1
13.49	11.06	7.2	1106.0	1037.2
13.5	11.07	7.21	1105.9	1037.2
13.51	11.06	7.2	1106.2	1037.4
13.52	11.06	7.2	1105.9	1037.4
13.53	11.07	7.2	1106.0	1037.4
13.54	11.04	7.18	1105.8	1037.7
13.55	11.06	7.19	1105.8	1037.5
13.56	11.04	7.18	1106.5	1037.5
13.57	11.06	7.19	1106.4	1037.5
13.58	11.06	7.19	1106.0	1037.8
13.59	11.05	7.18	1106.3	1037.8
13.6	11.07	7.19	1106.2	1037.7
13.61	11.05	7.17	1106.7	1037.5
13.62	11.06	7.17	1107.0	1037.6
13.63	11.07	7.18	1106.3	1037.7
13.64	11.06	7.17	1106.9	1037.7
13.65	11.07	7.17	1107.1	1037.8
13.66	11.08	7.18	1107.2	1037.9
13.67	11.06	7.16	1107.5	1037.8
13.68	11.07	7.17	1107.3	1037.8
13.69	11.06	7.17	1107.1	1037.9
13.7	11.05	7.16	1107.2	1037.9
13.71	11.06	7.16	1107.6	1038.2
13.72	11.06	7.16	1107.8	1038.0
13.73	11.06	7.16	1107.8	1038.0
13.74	11.07	7.16	1107.4	1038.2
13.75	11.06	7.15	1107.4	1038.2
13.76	11.06	7.14	1107.8	1038.3
13.77	11.06	7.14	1108.2	1038.3
13.78	11.07	7.15	1107.8	1038.4
13.79	11.06	7.14	1108.2	1038.4
13.8	11.06	7.14	1108.6	1038.6
13.81	11.07	7.14	1108.7	1038.4
13.82	11.06	7.13	1108.4	1038.1
13.83	11.05	7.13	1108.4	1038.4
13.84	11.07	7.14	1109.2	1038.6
13.85	11.05	7.13	1109.2	1038.4
13.86	11.06	7.12	1109.0	1038.4
13.87	11.07	7.13	1109.4	1038.7
13.88	11.06	7.12	1109.1	1038.6
13.89	11.05	7.12	1109.5	1038.7
13.9	11.05	7.12	1109.8	1038.6
13.91	11.06	7.12	1109.6	1038.8
13.92	11.05	7.11	1110.0	1038.8
13.93	11.05	7.11	1109.5	1038.7
13.94	11.07	7.11	1109.8	1038.8
13.95	11.05	7.11	1110.5	1039.0
13.96	11.06	7.11	1110.3	1038.7
13.97	11.07	7.11	1110.2	1039.0
13.98	11.06	7.1	1109.5	1038.9
13.99	11.07	7.1	1110.7	1038.9
14.0	11.07	7.1	1110.6	1038.8
14.01	11.06	7.1	1110.6	1039.0
14.02	11.05	7.09	1110.9	1038.9
14.03	11.06	7.09	1111.3	1038.8
14.04	11.07	7.1	1111.6	1039.1
14.05	11.07	7.09	1111.5	1039.1
14.06	11.05	7.08	1111.4	1038.8
14.07	11.05	7.08	1111.3	1039.1
14.08	11.06	7.08	1111.6	1039.0
14.09	11.07	7.08	1111.6	1039.2
14.1	11.06	7.08	1111.4	1039.2
14.11	11.06	7.08	1111.6	1039.3
14.12	11.06	7.08	1111.7	1039.2
14.13	11.06	7.07	1111.6	1039.2
14.14	11.05	7.07	1111.2	1039.2
14.15	11.05	7.06	1111.6	1039.4
14.16	11.06	7.07	1111.8	1039.1
14.17	11.07	7.07	1111.7	1039.4
14.18	11.05	7.06	1111.7	1039.3
14.19	11.06	7.06	1112.2	1039.4
14.2	11.05	7.06	1112.1	1039.3
14.21	11.05	7.06	1111.8	1039.4
14.22	11.06	7.06	1111.7	1039.4
14.23	11.06	7.05	1112.0	1039.3
14.24	11.05	7.05	1112.2	1039.2
14.25	11.05	7.05	1112.2	1039.4
14.26	11.06	7.05	1112.3	1039.4
14.27	11.07	7.05	1112.6	1039.6
14.28	11.06	7.04	1112.6	1039.6
14.29	11.05	7.04	1112.8	1039.4
14.3	11.06	7.04	1112.9	1039.6
14.31	11.06	7.04	1112.6	1039.3
14.32	11.07	7.04	1113.2	1039.5
14.33	11.07	7.04	1113.4	1039.6
14.34	11.06	7.03	1113.0	1039.7
14.35	11.04	7.03	1112.8	1039.6
14.36	11.05	7.02	1112.9	1039.8
14.37	11.05	7.03	1113.3	1039.7
14.38	11.07	7.03	1112.6	1039.7
14.39	11.07	7.03	1113.2	1039.8
14.4	11.07	7.03	1113.2	1039.7
14.41	11.05	7.02	1113.6	1039.8
14.42	11.05	7.02	1113.7	1040.0
14.43	11.06	7.02	1114.0	1040.0
14.44	11.06	7.02	1113.8	1040.1
14.45	11.06	7.02	1114.0	1039.9
14.46	11.07	7.02	1114.0	1040.0
14.47	11.05	7.01	1114.1	1040.0
14.48	11.06	7.0	1113.9	1040.2
14.49	11.05	7.0	1114.2	1039.9
14.5	11.06	7.01	1113.8	1040.2
14.51	11.07	7.01	1113.8	1040.1
14.52	11.07	7.0	1114.6	1040.2
14.53	11.04	6.99	1114.5	1040.4
14.54	11.05	6.99	1114.4	1040.3
14.55	11.04	6.99	1114.1	1040.3
14.56	11.06	6.99	1114.8	1040.2
14.57	11.06	7.0	1115.0	1040.4
14.58	11.07	7.0	1114.4	1040.4
14.59	11.07	6.99	1115.0	1040.2
14.6	11.05	6.99	1114.8	1040.3
14.61	11.05	6.98	1115.0	1040.4
14.62	11.05	6.98	1115.0	1040.2
14.63	11.06	6.98	1115.5	1040.5
14.64	11.06	6.98	1114.8	1040.2
14.65	11.05	6.98	1115.2	1040.5
14.66	11.05	6.97	1114.9	1040.3
14.67	11.05	6.97	1115.1	1040.3
14.68	11.05	6.97	1115.1	1040.4
14.69	11.07	6.98	1115.4	1040.5
14.7	11.06	6.97	1115.2	1040.4
14.71	11.05	6.96	1115.7	1040.4
14.72	11.05	6.96	1116.0	1040.6
14.73	11.05	6.96	1115.5	1040.6
14.74	11.06	6.97	1116.2	1040.8
14.75	11.08	6.97	1116.0	1040.8
14.76	11.07	6.96	1115.9	1040.8
14.77	11.07	6.96	1116.0	1040.6
14.78	11.06	6.95	1115.8	1040.8
14.79	11.06	6.95	1115.9	1041.0
14.8	11.05	6.95	1116.3	1040.6
14.81	11.04	6.94	1116.5	1041.0
14.82	11.05	6.94	1116.6	1040.7
14.83	11.05	6.94	1116.7	1040.9
14.84	11.05	6.94	1116.8	1040.7
14.85	11.06	6.94	1117.3	1041.0
14.86	11.06	6.94	1116.9	1040.9
14.87	11.07	6.94	1117.0	1040.9
14.88	11.06	6.94	1117.4	1040.8
14.89	11.07	6.94	1116.8	1041.0
14.9	11.07	6.94	1117.1	1040.8
14.91	11.06	6.94	1117.4	1041.1
14.92	11.06	6.94	1117.8	1041.1
14.93	11.06	6.93	1118.0	1041.1
14.94	11.06	6.93	1117.8	1041.0
14.95	11.06	6.93	1118.0	1041.0
14.96	11.05	6.92	1117.8	1041.0
14.97	11.06	6.92	1117.6	1041.2
14.98	11.06	6.92	1118.3	1041.1
14.99	11.07	6.92	1118.1	1041.2
15.0	11.07	6.92	1118.5	1041.4
15.01	11.06	6.92	1117.6	1041.4
15.02	11.07	6.92	1118.0	1041.5
15.03	11.08	6.92	1118.2	1041.3
15.04	11.07	6.92	1118.8	1041.4
15.05	11.07	6.92	1118.6	1041.6
15.06	11.07	6.91	1118.5	1041.5
15.07	11.07	6.91	1118.7	1041.7
15.08	11.07	6.91	1118.1	1041.7
15.09	11.06	6.91	1118.7	1041.6
15.1	11.06	6.9	1118.7	1041.6
15.11	11.06	6.9	1118.7	1041.6
15.12	11.06	6.89	1119.2	1041.6
15.13	11.06	6.89	1119.5	1041.4
15.14	11.06	6.89	1119.2	1041.5
15.15	11.05	6.89	1119.6	1041.6
15.16	11.06	6.89	1119.6	1041.7
15.17	11.05	6.88	1119.7	1041.6
15.18	11.05	6.89	1120.0	1041.8
15.19	11.04	6.88	1119.5	1041.6
15.2	11.06	6.88	1119.8	1041.8
15.21	11.06	6.89	1119.8	1041.8
15.22	11.06	6.88	1119.7	1042.0
15.23	11.07	6.89	1120.0	1041.8
15.24	11.06	6.88	1119.8	1042.0
15.25	11.06	6.88	1120.3	1042.1
15.26	11.07	6.88	1120.5	1042.1
15.27	11.06	6.87	1120.4	1042.0
15.28	11.06	6.87	1120.4	1042.1
15.29	11.06	6.87	1120.6	1042.0
15.3	11.07	6.87	1120.3	1042.0
15.31	11.07	6.87	1120.4	1042.3
15.32	11.07	6.87	1121.1	1042.2
15.33	11.07	6.87	1120.9	1042.3
15.34	11.07	6.87	1120.5	1042.2
15.35	11.07	6.86	1120.7	1042.2
15.36	11.06	6.86	1120.8	1041.9
15.37	11.06	6.86	1121.2	1042.2
15.38	11.06	6.85	1120.5	1042.3
15.39	11.07	6.86	1120.9	1042.5
15.4	11.06	6.85	1120.8	1042.4
15.41	11.05	6.85	1121.3	1042.5
15.42	11.05	6.85	1121.1	1042.5
15.43	11.06	6.84	1121.2	1042.5
15.44	11.06	6.84	1121.1	1042.4
15.45	11.04	6.83	1121.4	1042.5
15.46	11.04	6.84	1121.5	1042.6
15.47	11.05	6.83	1121.4	1042.3
15.48	11.04	6.83	1122.0	1042.7
15.49	11.07	6.84	1121.9	1042.7
15.5	11.06	6.84	1121.6	1042.7
15.51	11.06	6.84	1121.6	1042.9
15.52	11.07	6.84	1121.6	1042.5
15.53	11.07	6.83	1121.9	1042.8
15.54	11.07	6.83	1121.8	1042.5
15.55	11.06	6.83	1122.1	1042.7
15.56	11.06	6.82	1122.1	1042.7
15.57	11.06	6.82	1122.0	1042.8
15.58	11.05	6.82	1122.1	1042.9
15.59	11.05	6.81	1122.4	1043.1
15.6	11.05	6.81	1122.7	1042.7
15.61	11.05	6.81	1122.7	1042.7
15.62	11.05	6.81	1122.6	1042.8
15.63	11.04	6.81	1122.6	1042.8
15.64	11.05	6.81	1123.0	1042.8
15.65	11.06	6.81	1122.9	1042.7
15.66	11.06	6.81	1122.6	1043.0
15.67	11.06	6.81	1122.8	1042.9
15.68	11.06	6.81	1123.0	1042.9
15.69	11.06	6.81	1122.8	1043.0
15.7	11.05	6.81	1123.0	1043.0
15.71	11.07	6.81	1123.4	1042.9
15.72	11.07	6.81	1123.5	1043.0
15.73	11.07	6.81	1123.4	1043.1
15.74	11.07	6.8	1123.8	1043.2
15.75	11.07	6.8	1123.8	1043.2
15.76	11.08	6.8	1123.8	1043.1
15.77	11.08	6.8	1124.2	1043.1
15.78	11.08	6.8	1124.1	1043.0
15.79	11.06	6.79	1124.2	1042.9
15.8	11.07	6.79	1123.8	1043.1
15.81	11.06	6.79	1124.2	1043.2
15.82	11.06	6.79	1123.8	1043.2
15.83	11.06	6.78	1124.7	1043.2
15.84	11.07	6.79	1124.4	1043.2
15.85	11.07	6.78	1124.8	1043.2
15.86	11.07	6.78	1124.2	1043.3
15.87	11.06	6.78	1125.1	1043.1
15.88	11.08	6.78	1124.7	1043.2
15.89	11.07	6.78	1125.2	1043.5
15.9	11.07	6.77	1125.3	1043.3
15.91	11.05	6.77	1125.2	1043.4
15.92	11.06	6.77	1125.0	1043.5
15.93	11.04	6.76	1125.6	1043.5
15.94	11.06	6.76	1125.6	1043.4
15.95	11.04	6.76	1125.4	1043.3
15.96	11.05	6.76	1125.4	1043.4
15.97	11.05	6.76	1125.5	1043.6
15.98	11.05	6.75	1126.1	1043.8
15.99	11.05	6.76	1126.3	1043.5
16.0	11.05	6.75	1126.0	1043.6
16.01	11.05	6.75	1125.8	1043.4
16.02	11.06	6.75	1126.3	1043.6
16.03	11.05	6.75	1126.4	1043.6
16.04	11.05	6.75	1125.7	1043.6
16.05	11.04	6.74	1125.8	1043.7
16.06	11.05	6.74	1126.5	1043.6
16.07	11.05	6.75	1126.2	1043.9
16.08	11.05	6.75	1126.2	1043.8
16.09	11.07	6.75	1126.1	1043.9
16.1	11.07	6.75	1126.2	1043.5
16.11	11.08	6.75	1126.2	1043.7
16.12	11.07	6.75	1126.4	1043.8
16.13	11.07	6.74	1126.2	1043.8
16.14	11.07	6.74	1126.6	1043.6
16.15	11.06	6.74	1126.7	1043.9
16.16	11.06	6.74	1126.5	1043.8
16.17	11.06	6.74	1126.3	1043.8
16.18	11.07	6.74	1126.1	1044.1
16.19	11.06	6.74	1126.4	1044.0
16.2	11.06	6.74	1126.1	1043.8
16.21	11.06	6.72	1126.9	1043.8
16.22	11.05	6.73	1126.8	1043.8
16.23	11.06	6.72	1127.1	1044.1
16.24	11.05	6.72	1127.1	1044.2
16.25	11.06	6.72	1127.6	1044.2
16.26	11.05	6.71	1127.4	1044.1
16.27	11.05	6.71	1127.4	1044.1
16.28	11.05	6.71	1127.2	1044.0
16.29	11.04	6.71	1128.1	1044.1
16.3	11.05	6.71	1127.4	1044.3
16.31	11.05	6.71	1127.8	1044.2
16.32	11.05	6.71	1127.4	1044.2
16.33	11.06	6.71	1128.0	1044.0
16.34	11.06	6.71	1127.8	1044.2
16.35	11.07	6.71	1128.1	1044.4
16.36	11.04	6.7	1127.9	1044.3
16.37	11.06	6.7	1128.3	1044.5
16.38	11.05	6.7	1128.2	1044.4
16.39	11.06	6.7	1128.5	1044.4
16.4	11.06	6.7	1128.0	1044.5
16.41	11.06	6.7	1128.8	1044.3
16.42	11.05	6.69	1128.4	1044.3
16.43	11.05	6.69	1128.9	1044.5
16.44	11.04	6.68	1128.5	1044.6
16.45	11.05	6.69	1128.2	1044.5
16.46	11.06	6.69	1128.5	1044.4
16.47	11.05	6.69	1128.3	1044.4
16.48	11.07	6.7	1128.6	1044.4
16.49	11.06	6.69	1128.8	1044.5
16.5	11.08	6.7	1129.2	1044.6
16.51	11.06	6.69	1128.7	1044.7
16.52	11.06	6.68	1128.8	1044.7
16.53	11.06	6.68	1129.2	1044.5
16.54	11.05	6.67	1129.0	1044.7
16.55	11.07	6.68	1128.8	1044.7
16.56	11.08	6.69	1128.5	1044.6
16.57	11.05	6.67	1129.0	1044.5
16.58	11.07	6.67	1129.0	1044.6
16.59	11.05	6.67	1129.5	1044.6
16.6	11.06	6.67	1129.2	1044.8
16.61	11.06	6.67	1129.8	1044.5
16.62	11.07	6.67	1130.1	1044.9
16.63	11.07	6.67	1129.9	1045.0
16.64	11.07	6.67	1129.6	1044.7
16.65	11.05	6.66	1129.6	1044.7
16.66	11.06	6.66	1129.6	1045.0
16.67	11.04	6.66	1130.2	1045.0
16.68	11.06	6.66	1130.0	1045.1
16.69	11.05	6.66	1130.1	1045.0
16.7	11.07	6.66	1130.0	1045.0
16.71	11.06	6.66	1130.2	1044.8
16.72	11.07	6.66	1129.9	1045.0
16.73	11.07	6.66	1130.2	1044.9
16.74	11.07	6.66	1130.1	1044.8
16.75	11.07	6.66	1129.9	1044.9
16.76	11.06	6.65	1130.2	1045.0
16.77	11.06	6.64	1130.4	1045.2
16.78	11.05	6.64	1130.4	1045.3
16.79	11.06	6.65	1130.4	1045.2
16.8	11.06	6.65	1130.2	1045.4
16.81	11.06	6.65	1130.6	1045.2
16.82	11.07	6.65	1130.8	1045.2
16.83	11.07	6.64	1130.7	1045.4
16.84	11.06	6.64	1130.4	1045.2
16.85	11.07	6.64	1131.2	1045.2
16.86	11.07	6.65	1131.2	1045.4
16.87	11.08	6.64	1131.2	1045.4
16.88	11.07	6.64	1130.5	1045.4
16.89	11.06	6.63	1131.0	1045.4
16.9	11.05	6.63	1131.0	1045.3
16.91	11.05	6.63	1130.8	1045.7
16.92	11.06	6.63	1131.1	1045.7
16.93	11.05	6.62	1130.9	1045.6
16.94	11.04	6.62	1131.5	1045.4
16.95	11.06	6.62	1131.2	1045.5
16.96	11.04	6.62	1131.6	1045.5
16.97	11.06	6.62	1131.6	1045.4
16.98	11.06	6.63	1131.9	1045.6
16.99	11.08	6.63	1132.0	1045.5
17.0	11.06	6.62	1131.8	1045.5
17.01	11.05	6.61	1132.3	1045.7
17.02	11.05	6.61	1132.1	1045.9
17.03	11.06	6.61	1131.9	1045.6
17.04	11.05	6.61	1132.1	1045.8
17.05	11.06	6.61	1132.5	1045.8
17.06	11.05	6.61	1132.0	1045.7
17.07	11.05	6.61	1132.1	1045.7
17.08	11.05	6.61	1132.8	1045.8
17.09	11.06	6.61	1132.7	1045.6
17.1	11.07	6.61	1132.8	1045.8
17.11	11.06	6.61	1132.2	1046.1
17.12	11.07	6.61	1132.4	1046.0
17.13	11.05	6.6	1132.5	1045.9
17.14	11.06	6.6	1132.6	1045.9
17.15	11.06	6.6	1132.4	1045.9
17.16	11.05	6.59	1132.8	1045.9
17.17	11.05	6.59	1132.6	1045.8
17.18	11.06	6.59	1132.8	1046.0
17.19	11.06	6.59	1132.9	1046.1
17.2	11.06	6.59	1133.1	1046.2
17.21	11.06	6.6	1133.4	1046.2
17.22	11.06	6.59	1133.2	1046.1
17.23	11.06	6.59	1133.0	1045.9
17.24	11.06	6.59	1132.5	1046.1
17.25	11.04	6.58	1132.7	1046.1
17.26	11.05	6.58	1133.1	1046.0
17.27	11.04	6.58	1133.0	1046.0
17.28	11.06	6.58	1133.2	1046.4
17.29	11.06	6.58	1133.3	1046.4
17.3	11.07	6.59	1133.5	1046.1
17.31	11.07	6.59	1133.1	1046.0
17.32	11.06	6.58	1133.5	1046.0
17.33	11.07	6.58	1133.5	1046.0
17.34	11.06	6.57	1133.6	1046.1
17.35	11.06	6.58	1133.0	1046.2
17.36	11.06	6.57	1134.2	1046.1
17.37	11.05	6.57	1133.9	1046.2
17.38	11.05	6.56	1134.0	1046.2
17.39	11.05	6.56	1134.0	1046.1
17.4	11.04	6.56	1134.2	1046.0
17.41	11.06	6.56	1133.8	1046.1
17.42	11.07	6.57	1134.4	1046.2
17.43	11.07	6.57	1133.7	1046.0
17.44	11.06	6.57	1134.1	1046.1
17.45	11.05	6.56	1134.3	1046.0
17.46	11.05	6.56	1134.6	1046.2
17.47	11.06	6.56	1134.2	1046.1
17.48	11.06	6.56	1134.6	1046.1
17.49	11.06	6.56	1134.5	1046.2
17.5	11.06	6.56	1134.2	1046.1
17.51	11.06	6.55	1134.2	1046.1
17.52	11.06	6.55	1134.5	1046.4
17.53	11.06	6.55	1135.0	1046.2
17.54	11.08	6.56	1134.1	1046.3
17.55	11.06	6.55	1134.7	1046.2
17.56	11.04	6.54	1135.2	1046.4
17.57	11.06	6.55	1134.8	1046.5
17.58	11.05	6.54	1134.4	1046.6
17.59	11.08	6.55	1134.6	1046.4
17.6	11.07	6.55	1135.3	1046.5
17.61	11.06	6.54	1134.8	1046.2
17.62	11.05	6.54	1135.1	1046.3
17.63	11.06	6.54	1135.2	1046.4
17.64	11.06	6.54	1135.4	1046.4
17.65	11.06	6.54	1135.5	1046.4
17.66	11.05	6.53	1135.7	1046.3
17.67	11.06	6.53	1135.2	1046.2
17.68	11.07	6.54	1135.6	1046.2
17.69	11.07	6.54	1135.6	1046.3
17.7	11.05	6.52	1135.5	1046.4
17.71	11.05	6.52	1135.5	1046.4
17.72	11.06	6.54	1136.0	1046.2
17.73	11.06	6.53	1135.4	1046.4
17.74	11.04	6.52	1135.3	1046.2
17.75	11.06	6.52	1135.7	1046.3
17.76	11.06	6.53	1136.2	1046.4
17.77	11.07	6.53	1136.0	1046.2
17.78	11.04	6.52	1135.8	1046.4
17.79	11.05	6.52	1135.9	1046.3
17.8	11.07	6.53	1136.1	1046.2
17.81	11.07	6.52	1135.8	1046.3
17.82	11.04	6.51	1135.7	1046.3
17.83	11.05	6.51	1136.0	1046.2
17.84	11.07	6.52	1136.5	1046.3
17.85	11.08	6.52	1136.4	1046.3
17.86	11.05	6.51	1136.3	1046.3
17.87	11.06	6.51	1136.2	1046.1
17.88	11.06	6.51	1136.2	1046.2
17.89	11.04	6.5	1136.5	1046.3
17.9	11.06	6.51	1136.3	1046.4
17.91	11.07	6.51	1136.4	1046.4
17.92	11.05	6.5	1136.6	1046.3
17.93	11.05	6.5	1136.5	1046.2
17.94	11.04	6.49	1136.7	1046.4
17.95	11.05	6.5	1136.7	1046.3
17.96	11.06	6.5	1136.7	1046.3
17.97	11.06	6.5	1136.9	1046.4
17.98	11.05	6.5	1136.4	1046.4
17.99	11.05	6.49	1136.2	1046.3
18.0	11.07	6.5	1136.8	1046.5
18.01	11.06	6.5	1137.0	1046.2
18.02	11.06	6.49	1136.5	1046.4
18.03	11.05	6.49	1137.1	1046.6
18.04	11.06	6.49	1137.3	1046.5
18.05	11.06	6.49	1136.9	1046.4
18.06	11.07	6.49	1136.6	1046.2
18.07	11.06	6.49	1137.1	1046.4
18.08	11.07	6.49	1137.3	1046.4
18.09	11.06	6.49	1137.0	1046.5
18.1	11.06	6.48	1137.1	1046.2
18.11	11.05	6.48	1138.1	1046.4
18.12	11.04	6.47	1137.6	1046.5
18.13	11.06	6.48	1137.9	1046.4
18.14	11.07	6.48	1137.5	1046.2
18.15	11.07	6.48	1138.1	1046.4
18.16	11.06	6.48	1138.0	1046.4
18.17	11.06	6.48	1137.5	1046.5
18.18	11.05	6.47	1137.5	1046.4
18.19	11.06	6.47	1138.0	1046.4
18.2	11.07	6.48	1137.8	1046.4
18.21	11.07	6.48	1138.0	1046.4
18.22	11.05	6.47	1137.9	1046.6
18.23	11.06	6.47	1137.9	1046.3
18.24	11.05	6.46	1138.3	1046.2
18.25	11.04	6.46	1138.4	1046.6
18.26	11.06	6.47	1137.8	1046.3
18.27	11.08	6.48	1138.8	1046.3
18.28	11.05	6.46	1138.0	1046.3
18.29	11.06	6.46	1138.4	1046.3
18.3	11.05	6.46	1138.2	1046.6
18.31	11.07	6.47	1138.5	1046.5
18.32	11.07	6.46	1138.2	1046.4
18.33	11.05	6.46	1138.3	1046.5
18.34	11.06	6.46	1138.6	1046.4
18.35	11.06	6.46	1138.8	1046.6
18.36	11.06	6.45	1138.4	1046.8
18.37	11.07	6.46	1139.0	1046.6
18.38	11.06	6.45	1138.3	1046.7
18.39	11.06	6.45	1139.1	1046.8
18.4	11.05	6.45	1138.7	1046.6
18.41	11.06	6.45	1138.7	1046.6
18.42	11.06	6.46	1139.0	1046.8
18.43	11.06	6.44	1138.7	1046.5
18.44	11.04	6.44	1138.9	1046.7
18.45	11.07	6.45	1138.7	1046.7
18.46	11.07	6.45	1139.0	1046.6
18.47	11.06	6.44	1139.2	1046.8
18.48	11.04	6.43	1139.2	1046.6
18.49	11.05	6.44	1139.6	1046.5
18.5	11.06	6.44	1139.1	1046.6
18.51	11.05	6.43	1139.0	1046.8
18.52	11.07	6.44	1139.3	1046.9
18.53	11.07	6.44	1139.6	1046.8
18.54	11.05	6.43	1139.4	1046.6
18.55	11.05	6.43	1139.6	1046.8
18.56	11.05	6.43	1139.8	1046.9
18.57	11.05	6.43	1139.6	1046.8
18.58	11.06	6.43	1139.4	1047.0
18.59	11.07	6.43	1139.6	1046.9
18.6	11.07	6.43	1139.6	1046.8
18.61	11.06	6.43	1139.5	1046.7
18.62	11.06	6.43	1139.5	1047.1
18.63	11.06	6.43	1139.7	1047.0
18.64	11.06	6.42	1139.8	1046.8
18.65	11.05	6.42	1139.5	1047.1
18.66	11.05	6.42	1140.0	1047.1
18.67	11.07	6.42	1140.5	1047.1
18.68	11.08	6.43	1140.4	1047.1
18.69	11.05	6.42	1140.0	1047.2
18.7	11.05	6.41	1140.0	1047.2
18.71	11.04	6.42	1140.3	1046.7
18.72	11.07	6.42	1140.1	1047.0
18.73	11.05	6.41	1139.9	1046.9
18.74	11.05	6.41	1140.1	1046.9
18.75	11.05	6.41	1140.0	1047.0
18.76	11.05	6.41	1140.3	1047.1
18.77	11.04	6.4	1140.6	1046.9
18.78	11.07	6.41	1140.2	1047.1
18.79	11.06	6.41	1141.0	1047.0
18.8	11.06	6.41	1140.6	1047.3
18.81	11.05	6.4	1140.5	1047.2
18.82	11.05	6.4	1140.7	1047.3
18.83	11.06	6.41	1141.0	1047.4
18.84	11.06	6.4	1140.9	1047.5
18.85	11.06	6.4	1140.5	1047.5
18.86	11.06	6.4	1141.0	1047.2
18.87	11.05	6.39	1141.1	1046.8
18.88	11.05	6.4	1141.1	1047.1
18.89	11.07	6.4	1141.2	1047.2
18.9	11.06	6.4	1141.0	1047.3
18.91	11.05	6.39	1141.2	1047.0
18.92	11.06	6.39	1141.4	1047.0
18.93	11.06	6.4	1140.9	1047.1
18.94	11.05	6.4	1141.1	1047.3
18.95	11.06	6.39	1141.6	1047.1
18.96	11.06	6.39	1141.4	1047.1
18.97	11.05	6.39	1140.7	1047.2
18.98	11.04	6.38	1141.4	1047.3
18.99	11.06	6.39	1141.4	1047.3
19.0	11.06	6.39	1141.2	1047.2
19.01	11.07	6.39	1141.0	1047.2
19.02	11.06	6.39	1141.4	1047.5
19.03	11.06	6.38	1141.5	1047.2
19.04	11.04	6.38	1141.2	1047.3
19.05	11.05	6.38	1141.2	1047.5
19.06	11.04	6.38	1141.4	1047.5
19.07	11.05	6.37	1141.6	1047.3
19.08	11.05	6.38	1141.6	1047.5
19.09	11.05	6.37	1142.0	1047.6
19.1	11.05	6.37	1141.8	1047.6
19.11	11.07	6.38	1142.0	1047.6
19.12	11.07	6.38	1141.9	1047.5
19.13	11.06	6.37	1141.8	1047.2
19.14	11.06	6.38	1142.0	1047.3
19.15	11.07	6.37	1142.0	1047.2
19.16	11.05	6.37	1142.3	1047.6
19.17	11.06	6.37	1142.3	1047.4
19.18	11.04	6.36	1142.0	1047.3
19.19	11.06	6.36	1142.3	1047.4
19.2	11.06	6.37	1142.0	1047.4
19.21	11.05	6.36	1142.4	1047.3
19.22	11.06	6.37	1142.7	1047.5
19.23	11.06	6.37	1142.3	1047.5
19.24	11.06	6.37	1142.1	1047.5
19.25	11.08	6.37	1142.2	1047.7
19.26	11.06	6.36	1142.7	1047.4
19.27	11.03	6.35	1142.6	1047.4
19.28	11.05	6.36	1143.1	1047.5
19.29	11.05	6.35	1142.5	1047.3
19.3	11.05	6.35	1142.8	1047.4
19.31	11.07	6.36	1142.6	1047.5
19.32	11.05	6.35	1143.6	1047.5
19.33	11.05	6.35	1143.7	1047.2
19.34	11.05	6.35	1143.4	1047.3
19.35	11.06	6.35	1142.9	1047.4
19.36	11.06	6.36	1143.4	1047.5
19.37	11.05	6.35	1142.8	1047.3
19.38	11.06	6.35	1143.4	1047.5
19.39	11.06	6.35	1143.2	1047.6
19.4	11.06	6.35	1143.4	1047.6
19.41	11.05	6.35	1143.8	1047.7
19.42	11.07	6.35	1144.0	1047.4
19.43	11.04	6.34	1143.6	1047.5
19.44	11.05	6.34	1143.2	1047.4
19.45	11.06	6.35	1143.9	1047.4
19.46	11.06	6.34	1143.6	1047.4
19.47	11.04	6.34	1143.4	1047.4
19.48	11.07	6.34	1144.4	1047.4
19.49	11.05	6.34	1143.5	1047.6
19.5	11.06	6.34	1144.2	1047.3
19.51	11.06	6.34	1144.4	1047.6
19.52	11.06	6.34	1144.6	1047.8
19.53	11.06	6.34	1143.5	1047.5
19.54	11.05	6.33	1144.6	1047.7
19.55	11.04	6.33	1144.6	1047.5
19.56	11.06	6.33	1144.7	1047.5
19.57	11.04	6.32	1143.8	1047.7
19.58	11.06	6.33	1144.4	1047.6
19.59	11.07	6.33	1144.3	1047.6
19.6	11.06	6.33	1144.6	1047.5
19.61	11.06	6.33	1144.5	1047.5
19.62	11.07	6.33	1144.7	1047.6
19.63	11.05	6.32	1144.8	1047.6
19.64	11.06	6.32	1144.7	1047.5
19.65	11.06	6.32	1144.3	1047.4
19.66	11.04	6.31	1144.8	1047.5
19.67	11.05	6.31	1144.6	1047.7
19.68	11.05	6.32	1144.8	1047.7
19.69	11.04	6.31	1144.6	1047.5
19.7	11.04	6.31	1145.0	1047.5
19.71	11.04	6.31	1144.7	1047.7
19.72	11.05	6.31	1144.5	1047.6
19.73	11.04	6.31	1144.4	1047.5
19.74	11.05	6.31	1144.8	1047.5
19.75	11.06	6.32	1144.6	1047.5
19.76	11.06	6.32	1144.6	1047.6
19.77	11.06	6.31	1144.7	1047.6
19.78	11.06	6.32	1144.8	1047.6
19.79	11.07	6.31	1144.6	1047.6
19.8	11.05	6.31	1144.6	1047.6
19.81	11.07	6.31	1144.7	1047.6
19.82	11.06	6.31	1145.0	1047.6
19.83	11.07	6.31	1145.0	1047.6
19.84	11.07	6.31	1144.7	1047.5
19.85	11.07	6.3	1145.0	1047.4
19.86	11.05	6.3	1144.6	1047.5
19.87	11.05	6.3	1145.0	1047.8
19.88	11.06	6.3	1144.5	1047.6
19.89	11.05	6.3	1144.7	1047.5
19.9	11.05	6.3	1145.0	1047.6
19.91	11.06	6.3	1144.8	1047.9
19.92	11.04	6.29	1144.9	1047.8
19.93	11.06	6.3	1144.7	1047.5
19.94	11.05	6.29	1144.9	1047.5
19.95	11.05	6.29	1145.1	1047.5
19.96	11.05	6.29	1145.1	1047.4
19.97	11.05	6.29	1145.0	1047.5
19.98	11.04	6.29	1145.0	1047.4
19.99	11.05	6.28	1145.2	1047.6
20.0	11.05	6.29	1145.0	1047.7
20.01	11.05	6.28	1145.2	1047.3
20.02	11.05	6.28	1145.1	1047.4
20.03	11.05	6.29	1144.8	1047.5
20.04	11.04	6.28	1144.9	1047.3
20.05	11.05	6.29	1145.1	1047.6
20.06	11.06	6.28	1145.6	1047.5
20.07	11.05	6.28	1144.9	1047.6
20.08	11.07	6.29	1144.9	1047.6
20.09	11.05	6.28	1144.9	1047.6
20.1	11.06	6.28	1145.1	1047.7
20.11	11.06	6.28	1145.8	1047.6
20.12	11.06	6.28	1145.4	1047.5
20.13	11.07	6.29	1145.2	1047.5
20.14	11.05	6.28	1145.4	1047.6
20.15	11.06	6.28	1145.0	1047.7
20.16	11.06	6.28	1145.2	1047.8
20.17	11.06	6.28	1145.3	1047.7
20.18	11.07	6.28	1145.0	1047.7
20.19	11.04	6.27	1145.6	1047.6
20.2	11.07	6.28	1145.2	1047.6
20.21	11.06	6.27	1145.3	1047.6
20.22	11.06	6.27	1145.6	1047.7
20.23	11.06	6.27	1145.3	1047.7
20.24	11.07	6.27	1145.2	1047.8
20.25	11.05	6.27	1145.3	1047.8
20.26	11.05	6.26	1145.6	1047.9
20.27	11.05	6.26	1145.5	1047.8
20.28	11.06	6.26	1145.8	1047.9
20.29	11.05	6.26	1145.5	1047.9
20.3	11.06	6.27	1146.0	1047.9
20.31	11.06	6.26	1145.8	1047.8
20.32	11.05	6.26	1145.6	1047.9
20.33	11.04	6.26	1146.3	1047.8
20.34	11.05	6.26	1146.1	1047.8
20.35	11.05	6.25	1145.6	1047.7
20.36	11.07	6.26	1145.8	1047.8
20.37	11.07	6.26	1146.1	1047.8
20.38	11.06	6.26	1145.9	1047.9
20.39	11.05	6.25	1145.8	1047.9
20.4	11.05	6.25	1145.9	1048.0
20.41	11.05	6.25	1145.6	1048.0
20.42	11.05	6.25	1146.1	1047.8
20.43	11.05	6.25	1146.1	1047.8
20.44	11.07	6.26	1145.5	1047.7
20.45	11.07	6.25	1146.1	1047.7
20.46	11.05	6.25	1145.9	1047.9
20.47	11.05	6.24	1145.8	1048.0
20.48	11.04	6.24	1146.1	1048.0
20.49	11.06	6.25	1146.3	1047.9
20.5	11.04	6.24	1146.5	1047.8
20.51	11.05	6.24	1146.0	1047.8
20.52	11.05	6.25	1146.0	1047.9
20.53	11.06	6.25	1145.9	1047.9
20.54	11.04	6.24	1146.5	1048.0
20.55	11.04	6.23	1146.0	1047.8
20.56	11.05	6.24	1145.9	1048.2
20.57	11.07	6.24	1145.9	1048.1
20.58	11.06	6.24	1146.3	1048.2
20.59	11.06	6.24	1146.3	1048.0
20.6	11.05	6.23	1146.0	1048.1
20.61	11.05	6.23	1146.4	1048.1
20.62	11.05	6.23	1146.7	1048.2
20.63	11.06	6.23	1146.5	1048.0
20.64	11.06	6.24	1146.3	1048.1
20.65	11.06	6.23	1146.8	1048.0
20.66	11.04	6.22	1146.5	1047.8
20.67	11.06	6.23	1146.9	1047.7
20.68	11.06	6.23	1146.3	1047.9
20.69	11.05	6.23	1146.5	1047.8
20.7	11.05	6.23	1146.9	1047.7
20.71	11.04	6.22	1146.4	1047.5
20.72	11.06	6.23	1146.7	1047.9
20.73	11.06	6.23	1146.7	1047.7
20.74	11.05	6.22	1146.4	1048.0
20.75	11.06	6.22	1146.0	1048.4
20.76	11.06	6.22	1146.7	1048.2
20.77	11.06	6.23	1146.8	1048.4
20.78	11.06	6.22	1146.5	1048.1
20.79	11.05	6.22	1146.7	1048.1
20.8	11.06	6.22	1146.8	1048.1
20.81	11.05	6.22	1146.6	1048.2
20.82	11.05	6.21	1147.2	1048.1
20.83	11.05	6.22	1146.3	1047.8
20.84	11.05	6.21	1146.6	1048.1
20.85	11.05	6.21	1147.1	1047.8
20.86	11.06	6.22	1147.0	1047.9
20.87	11.06	6.22	1146.9	1047.9
20.88	11.07	6.22	1146.9	1047.8
20.89	11.04	6.2	1147.1	1047.8
20.9	11.06	6.21	1147.2	1047.8
20.91	11.05	6.21	1147.3	1047.9
20.92	11.06	6.22	1146.9	1048.0
20.93	11.06	6.22	1146.7	1047.8
20.94	11.05	6.2	1146.9	1047.7
20.95	11.05	6.2	1146.5	1047.9
20.96	11.06	6.21	1147.0	1047.5
20.97	11.06	6.21	1147.0	1047.6
20.98	11.05	6.21	1146.9	1047.6
20.99	11.05	6.2	1146.8	1047.9
21.0	11.06	6.2	1147.2	1047.9
21.01	11.05	6.2	1147.1	1047.8
21.02	11.05	6.2	1147.2	1048.0
21.03	11.05	6.2	1147.1	1047.7
21.04	11.06	6.2	1146.9	1048.0
21.05	11.06	6.2	1147.0	1047.8
21.06	11.04	6.2	1147.3	1047.7
21.07	11.06	6.2	1147.1	1047.7
21.08	11.06	6.2	1147.4	1047.9
21.09	11.06	6.2	1147.2	1048.1
21.1	11.05	6.19	1147.4	1047.9
21.11	11.05	6.19	1146.9	1047.9
21.12	11.05	6.19	1147.5	1048.0
21.13	11.06	6.19	1146.8	1048.0
21.14	11.05	6.19	1147.2	1047.9
21.15	11.06	6.19	1147.4	1047.9
21.16	11.06	6.19	1147.2	1047.9
21.17	11.06	6.19	1147.1	1047.9
21.18	11.05	6.19	1147.5	1048.1
21.19	11.06	6.19	1147.2	1048.1
21.2	11.05	6.19	1147.7	1048.1
21.21	11.05	6.19	1147.3	1048.1
21.22	11.05	6.18	1147.2	1048.0
21.23	11.06	6.19	1147.2	1047.9
21.24	11.06	6.19	1147.7	1048.1
21.25	11.07	6.18	1147.8	1048.0
21.26	11.04	6.18	1147.7	1048.0
21.27	11.06	6.19	1147.9	1048.2
21.28	11.05	6.18	1147.7	1048.2
21.29	11.06	6.18	1147.4	1048.1
21.3	11.07	6.18	1147.3	1048.3
21.31	11.05	6.18	1147.5	1048.1
21.32	11.05	6.18	1147.8	1048.1
21.33	11.06	6.18	1147.5	1048.1
21.34	11.07	6.18	1147.5	1048.1
21.35	11.05	6.17	1147.8	1048.1
21.36	11.06	6.18	1148.0	1048.3
21.37	11.07	6.18	1148.2	1048.2
21.38	11.06	6.17	1147.6	1048.3
21.39	11.06	6.18	1147.8	1047.9
21.4	11.07	6.18	1148.0	1048.2
21.41	11.05	6.17	1147.6	1048.2
21.42	11.06	6.17	1147.4	1048.0
21.43	11.05	6.17	1148.1	1048.3
21.44	11.05	6.16	1147.9	1048.3
21.45	11.06	6.17	1147.8	1048.4
21.46	11.07	6.17	1147.8	1048.3
21.47	11.05	6.16	1147.7	1048.4
21.48	11.06	6.17	1147.5	1048.5
21.49	11.05	6.17	1147.7	1048.4
21.5	11.05	6.16	1147.4	1048.5
21.51	11.06	6.17	1148.2	1048.4
21.52	11.06	6.16	1148.3	1048.2
21.53	11.06	6.16	1147.8	1048.3
21.54	11.04	6.15	1147.8	1048.3
21.55	11.05	6.16	1148.1	1048.2
21.56	11.06	6.16	1148.2	1048.1
21.57	11.05	6.16	1148.2	1048.1
21.58	11.06	6.16	1147.7	1048.2
21.59	11.05	6.16	1148.2	1048.1
21.6	11.06	6.16	1148.0	1048.0
21.61	11.04	6.15	1148.0	1047.9
21.62	11.06	6.16	1147.9	1048.2
21.63	11.06	6.16	1148.2	1048.0
21.64	11.04	6.15	1148.2	1048.3
21.65	11.06	6.15	1148.1	1047.9
21.66	11.05	6.15	1147.9	1048.2
21.67	11.04	6.15	1148.0	1048.2
21.68	11.06	6.15	1147.9	1048.4
21.69	11.05	6.15	1148.2	1048.3
21.7	11.05	6.15	1148.0	1048.6
21.71	11.05	6.15	1148.4	1048.1
21.72	11.07	6.15	1148.3	1048.4
21.73	11.05	6.15	1148.4	1048.2
21.74	11.05	6.14	1147.9	1048.0
21.75	11.06	6.15	1148.4	1048.1
21.76	11.06	6.15	1148.1	1048.1
21.77	11.05	6.14	1148.3	1048.2
21.78	11.05	6.14	1148.2	1048.2
21.79	11.06	6.14	1148.5	1048.0
21.8	11.05	6.14	1148.1	1048.2
21.81	11.06	6.14	1148.2	1048.0
21.82	11.06	6.14	1148.5	1048.1
21.83	11.05	6.13	1148.1	1047.9
21.84	11.05	6.13	1148.4	1047.8
21.85	11.06	6.14	1148.4	1047.8
21.86	11.07	6.14	1148.1	1047.7
21.87	11.06	6.14	1148.7	1047.8
21.88	11.05	6.13	1148.4	1047.9
21.89	11.06	6.14	1148.4	1048.0
21.9	11.05	6.13	1148.5	1047.9
21.91	11.06	6.13	1148.5	1047.8
21.92	11.05	6.13	1148.8	1048.0
21.93	11.05	6.13	1148.8	1048.1
21.94	11.06	6.13	1148.5	1048.0
21.95	11.06	6.13	1148.6	1048.0
21.96	11.04	6.13	1148.6	1048.1
21.97	11.06	6.13	1148.6	1048.1
21.98	11.05	6.13	1148.2	1048.3
21.99	11.06	6.13	1148.1	1048.2
22.0	11.06	6.13	1148.6	1048.2
22.01	11.06	6.13	1148.8	1048.2
22.02	11.06	6.13	1148.3	1048.0
22.03	11.05	6.12	1148.1	1048.0
22.04	11.06	6.13	1148.7	1048.3
22.05	11.06	6.13	1148.5	1048.4
22.06	11.06	6.12	1148.6	1048.3
22.07	11.05	6.12	1148.9	1048.2
22.08	11.06	6.12	1149.1	1048.2
22.09	11.06	6.12	1148.5	1048.0
22.1	11.06	6.12	1149.4	1048.2
22.11	11.04	6.12	1149.0	1048.0
22.12	11.07	6.12	1148.6	1048.1
22.13	11.05	6.12	1148.4	1047.9
22.14	11.06	6.12	1149.1	1048.0
22.15	11.05	6.11	1149.0	1048.0
22.16	11.06	6.12	1149.0	1048.2
22.17	11.06	6.11	1148.7	1048.2
22.18	11.05	6.11	1148.4	1048.1
22.19	11.05	6.11	1148.7	1048.5
22.2	11.06	6.11	1148.9	1048.2
22.21	11.06	6.11	1148.0	1048.3
22.22	11.05	6.11	1148.7	1048.1
22.23	11.07	6.12	1149.1	1048.0
22.24	11.05	6.11	1149.0	1048.1
22.25	11.05	6.11	1148.6	1047.8
22.26	11.05	6.11	1149.0	1047.8
22.27	11.05	6.11	1148.7	1048.0
22.28	11.06	6.11	1148.6	1047.9
22.29	11.06	6.11	1148.6	1048.2
22.3	11.06	6.11	1148.7	1048.0
22.31	11.03	6.1	1148.9	1048.3
22.32	11.06	6.1	1149.2	1048.5
22.33	11.05	6.1	1148.8	1048.3
22.34	11.06	6.1	1148.9	1048.5
22.35	11.05	6.1	1149.1	1048.4
22.36	11.06	6.1	1148.9	1048.6
22.37	11.06	6.1	1148.9	1048.4
22.38	11.06	6.1	1149.3	1048.4
22.39	11.06	6.1	1148.6	1048.2
22.4	11.06	6.1	1148.7	1048.1
22.41	11.05	6.1	1149.0	1048.2
22.42	11.06	6.1	1149.0	1048.2
22.43	11.06	6.1	1149.2	1048.1
22.44	11.05	6.09	1149.1	1048.0
22.45	11.07	6.1	1148.7	1048.3
22.46	11.06	6.1	1148.9	1048.2
22.47	11.05	6.09	1148.8	1048.3
22.48	11.05	6.09	1148.8	1048.3
22.49	11.05	6.09	1148.8	1048.0
22.5	11.05	6.09	1149.3	1048.4
22.51	11.05	6.09	1149.3	1048.0
22.52	11.06	6.09	1148.1	1048.3
22.53	11.06	6.09	1148.7	1048.0
22.54	11.05	6.09	1148.5	1048.1
22.55	11.06	6.09	1148.8	1048.0
22.56	11.05	6.09	1149.0	1048.0
22.57	11.06	6.09	1148.9	1048.3
22.58	11.05	6.08	1149.0	1048.1
22.59	11.07	6.09	1149.3	1048.0
22.6	11.05	6.08	1148.9	1048.0
22.61	11.07	6.08	1149.1	1048.2
22.62	11.06	6.08	1149.3	1048.1
22.63	11.05	6.08	1148.9	1048.0
22.64	11.06	6.08	1148.5	1048.3
22.65	11.06	6.08	1148.8	1048.0
22.66	11.06	6.08	1149.2	1048.0
22.67	11.07	6.08	1148.7	1048.2
22.68	11.06	6.08	1148.7	1048.1
22.69	11.06	6.08	1148.9	1048.0
22.7	11.05	6.08	1148.8	1048.0
22.71	11.06	6.08	1149.2	1047.8
22.72	11.05	6.07	1148.5	1047.7
22.73	11.05	6.07	1148.5	1047.8
22.74	11.05	6.08	1149.2	1047.7
22.75	11.06	6.07	1148.7	1047.6
22.76	11.06	6.07	1148.8	1047.7
22.77	11.06	6.08	1149.2	1047.9
22.78	11.05	6.07	1149.0	1047.8
22.79	11.06	6.07	1148.9	1047.8
22.8	11.05	6.07	1148.4	1048.0
22.81	11.05	6.07	1148.8	1048.0
22.82	11.06	6.07	1148.7	1047.9
22.83	11.05	6.07	1149.4	1047.8
22.84	11.05	6.07	1148.7	1047.8
22.85	11.06	6.07	1149.2	1047.7
22.86	11.06	6.07	1149.1	1047.8
22.87	11.05	6.06	1148.0	1047.9
22.88	11.07	6.06	1148.9	1048.0
22.89	11.05	6.06	1148.9	1048.0
22.9	11.06	6.06	1149.1	1048.0
22.91	11.06	6.06	1149.1	1048.0
22.92	11.06	6.06	1149.0	1048.0
22.93	11.06	6.07	1149.1	1048.1
22.94	11.06	6.06	1149.1	1048.2
22.95	11.06	6.06	1149.2	1048.0
22.96	11.05	6.06	1149.1	1048.2
22.97	11.07	6.06	1148.4	1048.3
22.98	11.06	6.06	1149.0	1048.2
22.99	11.05	6.06	1148.5	1048.2
23.0	11.06	6.05	1148.7	1048.3
23.01	11.06	6.06	1149.3	1048.0
23.02	11.05	6.05	1149.2	1048.0
23.03	11.06	6.06	1149.0	1048.2
23.04	11.05	6.05	1148.9	1048.1
23.05	11.05	6.05	1149.4	1048.3
23.06	11.06	6.05	1149.2	1048.1
23.07	11.05	6.05	1148.8	1048.1
23.08	11.06	6.06	1148.9	1048.2
23.09	11.05	6.05	1148.6	1048.0
23.1	11.06	6.05	1148.9	1048.1
23.11	11.05	6.05	1148.6	1048.1
23.12	11.05	6.05	1148.4	1048.0
23.13	11.06	6.05	1149.2	1047.7
23.14	11.07	6.05	1148.9	1047.8
23.15	11.05	6.05	1148.6	1047.8
23.16	11.07	6.05	1148.7	1047.8
23.17	11.06	6.04	1148.6	1047.7
23.18	11.06	6.05	1149.3	1048.0
23.19	11.05	6.04	1148.9	1047.8
23.2	11.06	6.05	1149.1	1047.8
23.21	11.05	6.04	1148.8	1047.7
23.22	11.05	6.04	1148.7	1047.6
23.23	11.05	6.04	1148.3	1048.0
23.24	11.06	6.04	1148.4	1047.6
23.25	11.06	6.04	1148.6	1047.8
23.26	11.06	6.04	1148.7	1047.7
23.27	11.05	6.04	1149.0	1047.8
23.28	11.06	6.04	1148.7	1047.4
23.29	11.06	6.04	1148.6	1047.4
23.3	11.06	6.04	1148.4	1047.7
23.31	11.06	6.04	1148.3	1047.4
23.32	11.05	6.03	1148.8	1047.7
23.33	11.06	6.03	1149.0	1047.5
23.34	11.06	6.04	1148.5	1047.3
23.35	11.06	6.04	1148.6	1047.5
23.36	11.05	6.04	1148.8	1047.4
23.37	11.06	6.03	1148.8	1047.3
23.38	11.06	6.03	1148.7	1047.4
23.39	11.06	6.03	1149.2	1047.6
23.4	11.06	6.03	1149.0	1047.3
23.41	11.05	6.03	1148.8	1047.3
23.42	11.06	6.03	1148.2	1047.3
23.43	11.05	6.03	1148.5	1047.4
23.44	11.05	6.03	1149.0	1047.2
23.45	11.06	6.03	1149.0	1047.3
23.46	11.05	6.03	1148.8	1047.2
23.47	11.06	6.03	1148.2	1047.2
23.48	11.05	6.02	1148.4	1047.3
23.49	11.06	6.03	1148.7	1047.4
23.5	11.05	6.03	1148.2	1047.3
23.51	11.05	6.02	1148.4	1047.2
23.52	11.06	6.02	1148.4	1047.3
23.53	11.06	6.02	1148.3	1047.2
23.54	11.06	6.02	1148.2	1047.1
23.55	11.05	6.02	1148.1	1047.2
23.56	11.06	6.02	1149.2	1047.2
23.57	11.05	6.02	1148.7	1047.0
23.58	11.05	6.02	1148.4	1047.2
23.59	11.06	6.02	1148.7	1047.2
23.6	11.06	6.02	1148.5	1047.4
23.61	11.06	6.02	1148.8	1047.2
23.62	11.06	6.02	1148.2	1047.2
23.63	11.06	6.02	1148.6	1047.1
23.64	11.06	6.02	1149.0	1047.2
23.65	11.05	6.01	1148.8	1047.3
23.66	11.07	6.02	1148.5	1047.6
23.67	11.06	6.02	1148.7	1047.3
23.68	11.06	6.02	1148.4	1047.4
23.69	11.05	6.01	1148.8	1047.2
23.7	11.06	6.01	1148.5	1047.2
23.71	11.06	6.01	1148.8	1047.6
23.72	11.06	6.01	1148.9	1047.2
23.73	11.05	6.01	1148.5	1047.5
23.74	11.06	6.01	1148.9	1047.2
23.75	11.05	6.01	1148.9	1047.4
23.76	11.06	6.01	1149.1	1047.3
23.77	11.05	6.01	1148.8	1047.2
23.78	11.06	6.01	1148.5	1047.0
23.79	11.04	6.01	1148.8	1046.9
23.8	11.05	6.01	1148.8	1047.1
23.81	11.06	6.01	1149.2	1047.0
23.82	11.05	6.01	1148.4	1047.0
23.83	11.06	6.01	1149.0	1046.9
23.84	11.05	6.0	1149.0	1047.0
23.85	11.06	6.0	1148.5	1046.9
23.86	11.06	6.01	1148.8	1046.7
23.87	11.05	6.0	1148.4	1047.0
23.88	11.06	6.0	1148.9	1047.3
23.89	11.06	6.0	1148.5	1047.0
23.9	11.07	6.0	1148.6	1047.1
23.91	11.06	6.0	1148.6	1047.2
23.92	11.06	6.0	1148.5	1046.8
23.93	11.07	6.0	1148.7	1047.0
23.94	11.06	6.0	1148.7	1047.1
23.95	11.06	6.0	1148.6	1046.9
23.96	11.05	6.0	1148.8	1047.1
23.97	11.06	6.0	1148.9	1047.1
23.98	11.05	6.0	1148.7	1047.1
23.99	11.06	6.0	1149.0	1047.2
24.0	11.05	6.0	1148.7	1047.0
24.01	11.06	6.0	1148.8	1047.0
24.02	11.05	5.99	1148.6	1047.0
24.03	11.06	5.99	1148.7	1047.1
24.04	11.06	5.99	1148.3	1047.3
24.05	11.06	5.99	1148.0	1046.8
24.06	11.05	5.99	1148.2	1046.9
24.07	11.06	5.99	1148.4	1046.8
24.08	11.05	5.99	1148.4	1046.8
24.09	11.07	5.99	1148.2	1047.1
24.1	11.06	5.99	1148.4	1046.9
24.11	11.07	5.99	1148.5	1046.9
24.12	11.05	5.99	1148.1	1047.0
24.13	11.05	5.99	1148.3	1046.8
24.14	11.06	5.99	1148.1	1046.7
24.15	11.06	5.99	1148.2	1046.7
24.16	11.06	5.99	1148.6	1046.8
24.17	11.06	5.98	1148.0	1046.7
24.18	11.05	5.98	1148.6	1046.8
24.19	11.07	5.99	1148.6	1046.9
24.2	11.06	5.99	1148.5	1046.8
24.21	11.05	5.98	1148.0	1046.8
24.22	11.05	5.98	1148.0	1046.7
24.23	11.06	5.98	1148.4	1046.5
24.24	11.05	5.98	1148.5	1046.7
24.25	11.06	5.98	1148.4	1046.6
24.26	11.04	5.98	1148.2	1046.7
24.27	11.05	5.98	1148.4	1046.8
24.28	11.06	5.98	1148.6	1046.8
24.29	11.05	5.97	1147.8	1046.8
24.3	11.05	5.98	1148.1	1046.7
24.31	11.05	5.98	1148.6	1047.0
24.32	11.06	5.98	1148.4	1046.8
24.33	11.06	5.98	1148.2	1046.7
24.34	11.05	5.97	1148.6	1046.9
24.35	11.07	5.98	1148.4	1046.6
24.36	11.05	5.97	1148.2	1046.5
24.37	11.06	5.97	1147.7	1046.9
24.38	11.07	5.97	1148.1	1046.8
24.39	11.06	5.97	1148.0	1046.6
24.4	11.07	5.98	1148.1	1046.6
24.41	11.04	5.97	1148.0	1046.5
24.42	11.06	5.97	1147.8	1046.7
24.43	11.06	5.97	1147.7	1046.6
24.44	11.06	5.97	1148.0	1046.6
24.45	11.06	5.97	1147.9	1046.7
24.46	11.06	5.97	1147.9	1046.9
24.47	11.06	5.97	1148.3	1046.7
24.48	11.07	5.97	1148.0	1046.8
24.49	11.06	5.97	1147.9	1046.4
24.5	11.06	5.97	1147.7	1046.5
24.51	11.06	5.97	1148.5	1046.6
24.52	11.05	5.96	1148.2	1046.5
24.53	11.06	5.96	1147.9	1046.5
24.54	11.05	5.96	1148.4	1046.5
24.55	11.06	5.96	1148.0	1046.6
24.56	11.06	5.96	1147.1	1046.7
24.57	11.06	5.96	1147.6	1046.6
24.58	11.05	5.96	1148.1	1046.7
24.59	11.05	5.96	1147.6	1046.9
24.6	11.05	5.96	1148.0	1046.7
24.61	11.05	5.96	1147.6	1047.0
24.62	11.05	5.96	1148.2	1047.0
24.63	11.07	5.96	1148.0	1046.7
24.64	11.06	5.96	1147.6	1046.7
24.65	11.06	5.96	1147.9	1046.4
24.66	11.04	5.95	1148.3	1046.5
24.67	11.06	5.95	1148.2	1046.3
24.68	11.06	5.96	1148.0	1046.3
24.69	11.06	5.96	1147.8	1046.5
24.7	11.06	5.96	1148.1	1046.4
24.71	11.06	5.96	1148.0	1046.2
24.72	11.05	5.95	1148.1	1046.6
24.73	11.06	5.95	1147.8	1046.6
24.74	11.06	5.96	1148.1	1046.4
24.75	11.06	5.96	1148.2	1046.2
24.76	11.06	5.96	1147.9	1046.4
24.77	11.06	5.95	1148.2	1046.3
24.78	11.05	5.95	1148.2	1046.4
24.79	11.07	5.95	1148.2	1046.4
24.8	11.06	5.95	1148.0	1046.4
24.81	11.06	5.95	1148.1	1046.4
24.82	11.05	5.95	1148.2	1046.6
24.83	11.06	5.95	1148.0	1046.2
24.84	11.05	5.95	1148.3	1046.4
24.85	11.06	5.95	1147.7	1046.3
24.86	11.06	5.95	1148.2	1046.4
24.87	11.07	5.95	1147.8	1046.5
24.88	11.05	5.94	1147.8	1046.2
24.89	11.05	5.94	1147.9	1046.4
24.9	11.06	5.94	1147.8	1046.2
24.91	11.05	5.94	1147.5	1046.1
24.92	11.06	5.94	1147.4	1046.2
24.93	11.05	5.94	1147.4	1046.1
24.94	11.06	5.94	1147.9	1046.2
24.95	11.06	5.94	1147.5	1046.2
24.96	11.06	5.94	1147.5	1046.3
24.97	11.06	5.94	1147.7	1046.2
24.98	11.05	5.94	1147.9	1046.1
24.99	11.05	5.94	1147.5	1046.1
25.0	11.05	5.94	1147.3	1046.2
25.01	11.05	5.94	1147.9	1046.2
25.02	11.06	5.94	1147.7	1046.1
25.03	11.05	5.94	1147.9	1046.2
25.04	11.06	5.94	1147.6	1046.3
25.05	11.06	5.94	1147.4	1046.1
25.06	11.06	5.94	1147.8	1046.2
25.07	11.06	5.94	1147.8	1046.2
25.08	11.05	5.94	1147.4	1046.1
25.09	11.05	5.93	1148.0	1046.2
25.1	11.07	5.94	1147.6	1046.3
25.11	11.05	5.93	1147.8	1046.2
25.12	11.05	5.93	1147.2	1046.1
25.13	11.05	5.93	1147.6	1046.2
25.14	11.06	5.93	1147.6	1045.9
25.15	11.05	5.93	1147.5	1045.9
25.16	11.06	5.93	1147.1	1046.2
25.17	11.06	5.93	1147.0	1046.0
25.18	11.06	5.93	1147.2	1046.0
25.19	11.05	5.93	1147.5	1045.9
25.2	11.06	5.93	1147.1	1046.1
25.21	11.06	5.93	1147.5	1045.9
25.22	11.05	5.92	1147.6	1046.2
25.23	11.06	5.93	1147.0	1046.2
25.24	11.06	5.93	1147.0	1046.1
25.25	11.07	5.93	1147.0	1046.0
25.26	11.06	5.93	1147.4	1046.0
25.27	11.05	5.92	1147.4	1046.3
25.28	11.06	5.93	1146.8	1046.2
25.29	11.05	5.92	1147.6	1046.2
25.3	11.06	5.93	1147.5	1046.0
25.31	11.06	5.92	1147.0	1045.9
25.32	11.05	5.92	1146.8	1045.8
25.33	11.05	5.92	1147.4	1045.9
25.34	11.06	5.92	1147.3	1046.3
25.35	11.06	5.92	1147.1	1046.0
25.36	11.06	5.92	1146.9	1046.0
25.37	11.06	5.92	1146.8	1046.0
25.38	11.05	5.92	1147.0	1046.0
25.39	11.05	5.92	1146.7	1046.4
25.4	11.05	5.92	1146.5	1046.0
25.41	11.06	5.92	1147.0	1046.1
25.42	11.06	5.92	1147.0	1045.9
25.43	11.06	5.92	1146.9	1045.8
25.44	11.06	5.92	1146.8	1045.8
25.45	11.06	5.91	1146.8	1046.0
25.46	11.06	5.92	1146.8	1046.1
25.47	11.06	5.92	1146.4	1046.1
25.48	11.06	5.92	1146.1	1046.1
25.49	11.06	5.91	1146.9	1046.1
25.5	11.06	5.91	1146.7	1046.2
25.51	11.07	5.92	1147.0	1046.3
25.52	11.05	5.91	1146.4	1046.2
25.53	11.05	5.91	1146.9	1046.0
25.54	11.06	5.91	1147.3	1046.0
25.55	11.06	5.91	1146.4	1045.8
25.56	11.05	5.91	1146.6	1045.8
25.57	11.06	5.91	1147.0	1046.0
25.58	11.06	5.91	1146.7	1045.8
25.59	11.07	5.91	1146.3	1045.8
25.6	11.07	5.91	1146.4	1045.7
25.61	11.06	5.91	1146.4	1045.8
25.62	11.06	5.91	1146.5	1045.9
25.63	11.06	5.91	1146.2	1046.0
25.64	11.06	5.91	1146.6	1045.6
25.65	11.06	5.91	1146.4	1045.6
25.66	11.06	5.9	1146.6	1045.6
25.67	11.06	5.9	1146.4	1045.6
25.68	11.06	5.91	1146.5	1045.9
25.69	11.06	5.91	1146.7	1045.7
25.7	11.07	5.91	1145.8	1045.7
25.71	11.06	5.9	1145.6	1045.5
25.72	11.06	5.9	1146.4	1045.7
25.73	11.05	5.9	1146.6	1045.4
25.74	11.06	5.9	1146.1	1045.5
25.75	11.06	5.9	1146.5	1045.4
25.76	11.05	5.9	1146.2	1045.2
25.77	11.07	5.9	1146.2	1045.4
25.78	11.06	5.9	1145.8	1045.4
25.79	11.05	5.9	1146.2	1045.3
25.8	11.06	5.9	1146.1	1045.6
25.81	11.05	5.9	1145.9	1045.4
25.82	11.05	5.9	1146.4	1045.4
25.83	11.06	5.9	1146.6	1045.3
25.84	11.06	5.89	1146.1	1045.1
25.85	11.04	5.9	1145.8	1045.3
25.86	11.06	5.89	1145.8	1045.3
25.87	11.05	5.89	1146.1	1045.0
25.88	11.07	5.9	1146.1	1045.3
25.89	11.05	5.89	1145.4	1045.1
25.9	11.06	5.89	1145.8	1045.4
25.91	11.06	5.89	1146.0	1045.3
25.92	11.07	5.9	1146.0	1045.2
25.93	11.06	5.9	1146.0	1045.3
25.94	11.05	5.89	1146.0	1045.3
25.95	11.06	5.89	1145.9	1045.2
25.96	11.06	5.89	1146.2	1045.3
25.97	11.06	5.89	1146.0	1045.3
25.98	11.06	5.89	1145.6	1045.1
25.99	11.06	5.89	1145.9	1045.4
26.0	11.05	5.89	1146.2	1045.2
26.01	11.06	5.89	1145.9	1045.3
26.02	11.06	5.89	1146.0	1045.2
26.03	11.06	5.89	1145.9	1045.3
26.04	11.05	5.88	1145.4	1045.1
26.05	11.05	5.88	1146.0	1045.3
26.06	11.07	5.89	1145.7	1045.2
26.07	11.06	5.89	1145.5	1045.0
26.08	11.04	5.88	1145.5	1045.1
26.09	11.05	5.88	1145.8	1045.0
26.1	11.06	5.88	1145.7	1045.1
26.11	11.05	5.88	1146.2	1045.1
26.12	11.06	5.88	1145.6	1044.6
26.13	11.06	5.88	1145.6	1045.0
26.14	11.05	5.88	1145.6	1044.7
26.15	11.05	5.88	1145.7	1044.7
26.16	11.06	5.88	1145.9	1044.7
26.17	11.07	5.88	1145.8	1044.8
26.18	11.05	5.88	1145.6	1044.4
26.19	11.06	5.88	1145.5	1044.4
26.2	11.05	5.87	1145.0	1044.4
26.21	11.06	5.88	1145.1	1044.4
26.22	11.05	5.88	1145.2	1044.5
26.23	11.07	5.88	1145.7	1044.6
26.24	11.06	5.88	1145.4	1044.4
26.25	11.06	5.88	1145.3	1044.4
26.26	11.06	5.88	1145.4	1044.4
26.27	11.06	5.87	1145.1	1044.3
26.28	11.06	5.88	1145.3	1044.3
26.29	11.06	5.88	1145.1	1044.5
26.3	11.06	5.88	1145.6	1044.2
26.31	11.05	5.87	1145.4	1044.4
26.32	11.06	5.88	1145.2	1044.1
26.33	11.06	5.87	1145.1	1044.4
26.34	11.07	5.88	1145.2	1044.3
26.35	11.06	5.87	1145.5	1044.3
26.36	11.07	5.87	1145.4	1044.3
26.37	11.06	5.87	1145.0	1044.4
26.38	11.07	5.87	1145.2	1044.3
26.39	11.07	5.88	1145.0	1044.4
26.4	11.07	5.87	1145.2	1044.4
26.41	11.05	5.87	1144.8	1044.6
26.42	11.05	5.87	1144.9	1044.4
26.43	11.06	5.87	1145.1	1044.4
26.44	11.08	5.87	1145.3	1044.4
26.45	11.05	5.87	1144.9	1044.5
26.46	11.05	5.87	1144.9	1044.5
26.47	11.05	5.87	1144.9	1044.4
26.48	11.06	5.87	1145.0	1044.4
26.49	11.06	5.87	1144.9	1044.5
26.5	11.07	5.87	1145.1	1044.4
26.51	11.05	5.86	1144.8	1044.5
26.52	11.06	5.86	1145.0	1044.2
26.53	11.05	5.86	1144.4	1044.2
26.54	11.06	5.86	1144.7	1044.2
26.55	11.06	5.86	1144.7	1044.0
26.56	11.06	5.86	1145.0	1044.3
26.57	11.05	5.86	1144.8	1044.2
26.58	11.06	5.86	1145.0	1044.2
26.59	11.06	5.86	1144.9	1044.0
26.6	11.06	5.86	1144.8	1044.0
26.61	11.05	5.86	1144.8	1044.2
26.62	11.06	5.86	1145.1	1044.1
26.63	11.05	5.86	1144.9	1043.9
26.64	11.06	5.86	1144.6	1044.0
26.65	11.07	5.86	1144.7	1044.1
26.66	11.06	5.86	1144.6	1044.2
26.67	11.06	5.86	1144.7	1044.2
26.68	11.06	5.86	1144.8	1044.0
26.69	11.06	5.85	1144.4	1044.2
26.7	11.06	5.86	1144.8	1044.1
26.71	11.07	5.86	1144.8	1044.0
26.72	11.06	5.86	1144.7	1043.6
26.73	11.06	5.86	1144.8	1043.9
26.74	11.05	5.85	1145.2	1043.6
26.75	11.06	5.86	1144.9	1044.1
26.76	11.06	5.86	1144.8	1043.7
26.77	11.06	5.85	1144.8	1043.9
26.78	11.06	5.85	1144.9	1044.0
26.79	11.06	5.85	1144.8	1043.8
26.8	11.05	5.85	1144.6	1044.0
26.81	11.07	5.85	1144.5	1044.0
26.82	11.05	5.85	1144.8	1044.0
26.83	11.06	5.85	1144.7	1044.1
26.84	11.05	5.85	1144.6	1044.0
26.85	11.06	5.85	1144.4	1043.7
26.86	11.05	5.85	1144.6	1043.9
26.87	11.05	5.85	1144.8	1043.8
26.88	11.06	5.85	1144.5	1043.8
26.89	11.06	5.85	1144.5	1043.9
26.9	11.05	5.85	1144.7	1043.8
26.91	11.06	5.85	1144.4	1043.7
26.92	11.06	5.85	1144.5	1043.9
26.93	11.06	5.85	1144.3	1043.7
26.94	11.07	5.85	1144.7	1043.8
26.95	11.07	5.85	1144.6	1043.8
26.96	11.05	5.84	1144.5	1043.9
26.97	11.07	5.85	1144.0	1043.9
26.98	11.06	5.85	1144.3	1044.0
26.99	11.06	5.85	1144.4	1044.0
27.0	11.06	5.84	1144.5	1043.8
27.01	11.06	5.84	1144.4	1043.7
27.02	11.07	5.84	1144.6	1043.7
27.03	11.05	5.84	1144.7	1043.8
27.04	11.06	5.84	1144.4	1043.7
27.05	11.06	5.84	1144.0	1043.5
27.06	11.06	5.84	1144.3	1043.6
27.07	11.08	5.84	1143.8	1043.7
27.08	11.06	5.84	1144.1	1043.7
27.09	11.05	5.84	1144.0	1043.6
27.1	11.06	5.84	1143.9	1043.6
27.11	11.06	5.84	1143.4	1043.5
27.12	11.07	5.84	1142.9	1043.4
27.13	11.06	5.84	1144.0	1043.6
27.14	11.06	5.84	1144.1	1043.6
27.15	11.06	5.84	1142.9	1043.4
27.16	11.05	5.83	1142.8	1043.5
27.17	11.06	5.84	1143.4	1043.4
27.18	11.07	5.84	1144.2	1043.3
27.19	11.06	5.84	1144.5	1043.5
27.2	11.06	5.83	1142.7	1043.6
27.21	11.05	5.83	1143.8	1043.4
27.22	11.07	5.83	1143.3	1043.4
27.23	11.06	5.84	1143.1	1043.5
27.24	11.06	5.83	1142.7	1043.2
27.25	11.06	5.83	1142.6	1043.2
27.26	11.06	5.83	1142.5	1043.4
27.27	11.05	5.83	1143.2	1043.4
27.28	11.06	5.83	1143.0	1043.4
27.29	11.06	5.83	1142.7	1043.3
27.3	11.06	5.83	1142.7	1043.3
27.31	11.05	5.83	1143.2	1043.2
27.32	11.06	5.83	1142.4	1043.2
27.33	11.04	5.83	1142.9	1043.2
27.34	11.05	5.83	1143.1	1043.1
27.35	11.06	5.83	1142.2	1043.3
27.36	11.05	5.83	1142.9	1043.2
27.37	11.06	5.83	1143.0	1043.2
27.38	11.07	5.83	1142.2	1043.1
27.39	11.06	5.83	1142.6	1043.0
27.4	11.06	5.83	1142.5	1042.9
27.41	11.07	5.83	1142.4	1043.0
27.42	11.07	5.83	1142.5	1043.2
27.43	11.07	5.83	1142.9	1043.2
27.44	11.07	5.83	1142.5	1043.4
27.45	11.06	5.82	1142.8	1043.0
27.46	11.07	5.82	1141.9	1042.8
27.47	11.07	5.82	1142.0	1042.8
27.48	11.05	5.82	1142.1	1042.6
27.49	11.07	5.82	1142.1	1042.6
27.5	11.06	5.83	1142.5	1042.8
27.51	11.07	5.83	1142.7	1042.6
27.52	11.05	5.82	1141.6	1042.7
27.53	11.06	5.82	1142.3	1042.6
27.54	11.05	5.82	1142.2	1042.6
27.55	11.07	5.82	1142.1	1042.8
27.56	11.05	5.82	1142.0	1043.1
27.57	11.06	5.82	1142.0	1042.9
27.58	11.06	5.82	1142.0	1043.0
27.59	11.06	5.82	1141.9	1043.0
27.6	11.06	5.82	1142.0	1042.8
27.61	11.07	5.82	1141.7	1042.7
27.62	11.06	5.82	1141.5	1042.5
27.63	11.06	5.81	1141.5	1042.7
27.64	11.06	5.82	1142.3	1042.7
27.65	11.06	5.82	1141.9	1042.8
27.66	11.06	5.82	1141.3	1042.5
27.67	11.07	5.82	1141.4	1043.0
27.68	11.05	5.82	1141.7	1042.7
27.69	11.07	5.82	1141.5	1043.0
27.7	11.06	5.81	1141.6	1042.9
27.71	11.06	5.82	1141.4	1043.0
27.72	11.06	5.81	1141.8	1042.5
27.73	11.06	5.81	1141.5	1042.7
27.74	11.06	5.81	1141.9	1042.9
27.75	11.06	5.81	1141.8	1043.0
27.76	11.07	5.81	1142.1	1042.7
27.77	11.07	5.81	1142.0	1042.8
27.78	11.07	5.81	1141.6	1042.6
27.79	11.06	5.81	1141.5	1042.8
27.8	11.06	5.81	1141.4	1042.6
27.81	11.06	5.81	1141.3	1042.5
27.82	11.06	5.81	1141.5	1042.5
27.83	11.05	5.8	1141.2	1042.7
27.84	11.06	5.81	1141.2	1042.8
27.85	11.06	5.81	1141.2	1042.9
27.86	11.06	5.81	1141.8	1042.7
27.87	11.05	5.81	1141.5	1042.5
27.88	11.07	5.81	1141.6	1042.8
27.89	11.05	5.81	1141.2	1042.6
27.9	11.06	5.81	1140.9	1042.6
27.91	11.05	5.81	1141.0	1042.7
27.92	11.07	5.81	1141.0	1042.3
27.93	11.06	5.8	1141.2	1042.6
27.94	11.06	5.8	1140.7	1042.6
27.95	11.06	5.81	1140.8	1042.6
27.96	11.06	5.8	1141.4	1042.6
27.97	11.06	5.81	1141.4	1042.5
27.98	11.06	5.81	1140.9	1042.3
27.99	11.06	5.81	1140.8	1042.4
28.0	11.06	5.8	1141.0	1042.4
28.01	11.04	5.8	1140.6	1042.4
28.02	11.05	5.8	1140.5	1042.5
28.03	11.05	5.8	1140.7	1042.4
28.04	11.06	5.8	1141.2	1042.5
28.05	11.06	5.8	1140.7	1042.5
28.06	11.05	5.8	1140.0	1042.4
28.07	11.06	5.8	1140.4	1042.5
28.08	11.07	5.8	1140.3	1042.3
28.09	11.05	5.8	1139.9	1042.5
28.1	11.07	5.8	1140.0	1042.4
28.11	11.06	5.8	1140.6	1042.5
28.12	11.07	5.8	1140.5	1042.6
28.13	11.06	5.8	1140.6	1042.2
28.14	11.06	5.79	1140.6	1042.2
28.15	11.06	5.8	1139.9	1042.1
28.16	11.07	5.8	1140.2	1042.3
28.17	11.07	5.8	1139.8	1042.2
28.18	11.06	5.8	1139.9	1042.1
28.19	11.06	5.79	1140.2	1042.0
28.2	11.06	5.8	1139.6	1042.1
28.21	11.08	5.8	1139.5	1042.2
28.22	11.07	5.8	1139.0	1042.3
28.23	11.07	5.79	1139.5	1042.2
28.24	11.05	5.79	1139.2	1042.0
28.25	11.07	5.79	1138.8	1042.0
28.26	11.05	5.8	1139.6	1042.0
28.27	11.07	5.79	1139.7	1042.0
28.28	11.05	5.79	1139.5	1042.2
28.29	11.07	5.79	1139.6	1042.1
28.3	11.06	5.79	1138.8	1042.2
28.31	11.06	5.79	1139.2	1042.1
28.32	11.05	5.79	1139.4	1041.9
28.33	11.08	5.8	1139.2	1042.1
28.34	11.05	5.79	1139.3	1041.8
28.35	11.06	5.79	1139.8	1042.0
28.36	11.06	5.79	1140.1	1041.7
28.37	11.06	5.79	1139.6	1041.9
28.38	11.05	5.79	1139.2	1042.0
28.39	11.06	5.79	1139.3	1042.0
28.4	11.05	5.79	1139.9	1042.0
28.41	11.06	5.79	1139.6	1042.1
28.42	11.06	5.79	1139.5	1041.9
28.43	11.06	5.79	1139.5	1042.2
28.44	11.06	5.79	1139.4	1042.0
28.45	11.07	5.79	1139.3	1042.1
28.46	11.07	5.79	1139.6	1041.9
28.47	11.06	5.79	1139.9	1042.0
28.48	11.06	5.78	1139.4	1042.0
28.49	11.07	5.79	1139.1	1041.9
28.5	11.05	5.78	1139.5	1041.9
28.51	11.06	5.78	1139.0	1042.0
28.52	11.05	5.78	1139.0	1042.0
28.53	11.05	5.78	1139.1	1041.8
28.54	11.06	5.78	1139.1	1041.9
28.55	11.06	5.78	1139.6	1041.9
28.56	11.05	5.78	1139.2	1041.8
28.57	11.05	5.78	1139.2	1041.9
28.58	11.06	5.78	1139.3	1041.8
28.59	11.06	5.78	1139.6	1041.7
28.6	11.07	5.78	1138.9	1041.8
28.61	11.05	5.78	1138.9	1042.0
28.62	11.06	5.78	1139.2	1041.9
28.63	11.06	5.78	1138.9	1041.7
28.64	11.06	5.78	1139.2	1041.6
28.65	11.06	5.78	1138.6	1041.7
28.66	11.06	5.78	1139.1	1041.7
28.67	11.06	5.78	1139.2	1041.9
28.68	11.06	5.78	1138.8	1041.9
28.69	11.06	5.78	1138.8	1042.0
28.7	11.08	5.78	1138.6	1041.8
28.71	11.06	5.77	1139.1	1042.0
28.72	11.06	5.77	1138.5	1041.9
28.73	11.05	5.77	1138.2	1041.7
28.74	11.06	5.78	1138.4	1041.9
28.75	11.07	5.78	1138.5	1042.0
28.76	11.06	5.77	1138.8	1041.9
28.77	11.06	5.78	1138.8	1041.7
28.78	11.06	5.77	1138.7	1041.5
28.79	11.05	5.77	1138.8	1041.5
28.8	11.06	5.78	1138.8	1041.5
28.81	11.06	5.77	1138.4	1041.4
28.82	11.07	5.78	1138.6	1041.6
28.83	11.06	5.77	1138.2	1041.6
28.84	11.05	5.77	1138.2	1041.5
28.85	11.06	5.77	1138.4	1041.6
28.86	11.05	5.77	1138.6	1041.5
28.87	11.06	5.77	1138.5	1041.8
28.88	11.07	5.78	1137.5	1041.6
28.89	11.05	5.77	1138.2	1041.6
28.9	11.06	5.77	1138.4	1041.5
28.91	11.06	5.77	1138.3	1041.5
28.92	11.05	5.76	1138.2	1041.4
28.93	11.07	5.77	1137.8	1041.6
28.94	11.06	5.77	1138.0	1041.6
28.95	11.06	5.77	1138.6	1041.5
28.96	11.06	5.77	1138.5	1041.4
28.97	11.07	5.77	1138.1	1041.4
28.98	11.06	5.77	1138.2	1041.5
28.99	11.07	5.77	1137.8	1041.7
29.0	11.06	5.77	1137.6	1041.7
29.01	11.07	5.77	1138.4	1041.5
29.02	11.06	5.77	1138.1	1041.5
29.03	11.07	5.77	1137.9	1041.4
29.04	11.06	5.76	1137.6	1041.6
29.05	11.07	5.76	1138.1	1041.5
29.06	11.05	5.76	1137.6	1041.1
29.07	11.06	5.76	1137.4	1041.3
29.08	11.05	5.76	1137.3	1041.1
29.09	11.06	5.76	1137.9	1040.9
29.1	11.05	5.76	1137.3	1040.9
29.11	11.06	5.76	1137.4	1041.2
29.12	11.05	5.76	1136.8	1041.0
29.13	11.07	5.76	1137.5	1040.9
29.14	11.07	5.77	1137.4	1040.8
29.15	11.05	5.76	1137.0	1040.8
29.16	11.06	5.76	1136.8	1040.7
29.17	11.06	5.76	1137.3	1040.8
29.18	11.06	5.76	1137.1	1040.7
29.19	11.07	5.76	1137.0	1040.7
29.2	11.06	5.76	1136.7	1040.7
29.21	11.06	5.76	1137.2	1040.7
29.22	11.06	5.76	1137.3	1040.4
29.23	11.05	5.75	1137.1	1040.8
29.24	11.05	5.75	1136.5	1040.6
29.25	11.06	5.76	1137.6	1040.7
29.26	11.07	5.76	1137.2	1040.8
29.27	11.06	5.76	1137.3	1041.0
29.28	11.06	5.75	1136.8	1041.1
29.29	11.06	5.76	1137.2	1041.0
29.3	11.07	5.76	1136.7	1041.2
29.31	11.05	5.75	1136.6	1041.2
29.32	11.06	5.75	1136.6	1041.1
29.33	11.06	5.75	1137.0	1040.8
29.34	11.07	5.76	1137.2	1040.9
29.35	11.05	5.75	1137.0	1040.8
29.36	11.07	5.75	1136.8	1040.7
29.37	11.05	5.75	1137.1	1040.7
29.38	11.07	5.75	1136.5	1040.8
29.39	11.05	5.75	1136.5	1040.6
29.4	11.07	5.76	1136.3	1040.8
29.41	11.06	5.75	1136.8	1040.7
29.42	11.07	5.75	1136.6	1040.9
29.43	11.07	5.75	1136.7	1041.0
29.44	11.05	5.75	1136.4	1040.8
29.45	11.06	5.75	1136.8	1040.7
29.46	11.07	5.75	1136.4	1040.6
29.47	11.06	5.75	1136.7	1040.7
29.48	11.06	5.75	1136.0	1040.4
29.49	11.06	5.75	1136.8	1040.3
29.5	11.06	5.75	1136.1	1040.8
29.51	11.06	5.75	1136.1	1040.3
29.52	11.05	5.75	1136.2	1040.6
29.53	11.06	5.75	1136.6	1040.5
29.54	11.06	5.75	1136.4	1040.6
29.55	11.06	5.75	1135.9	1040.4
29.56	11.06	5.75	1136.2	1040.4
29.57	11.06	5.75	1136.4	1040.4
29.58	11.05	5.75	1136.8	1040.3
29.59	11.05	5.75	1136.0	1040.4
29.6	11.05	5.74	1136.6	1040.3
29.61	11.06	5.74	1136.7	1040.4
29.62	11.06	5.75	1135.7	1040.2
29.63	11.06	5.75	1136.1	1040.2
29.64	11.06	5.75	1135.7	1040.2
29.65	11.06	5.74	1136.0	1040.3
29.66	11.06	5.74	1136.1	1040.1
29.67	11.06	5.74	1135.6	1040.2
29.68	11.05	5.74	1136.3	1040.3
29.69	11.07	5.74	1135.8	1040.4
29.7	11.06	5.74	1135.9	1040.2
29.71	11.07	5.74	1136.1	1040.2
29.72	11.05	5.74	1136.2	1040.0
29.73	11.07	5.74	1135.7	1040.2
29.74	11.05	5.74	1136.1	1039.9
29.75	11.07	5.74	1135.3	1040.2
29.76	11.06	5.74	1135.7	1040.0
29.77	11.06	5.74	1135.2	1040.0
29.78	11.06	5.74	1135.5	1040.0
29.79	11.06	5.74	1135.1	1040.0
29.8	11.07	5.74	1135.9	1040.2
29.81	11.06	5.74	1135.8	1040.4
29.82	11.05	5.74	1136.0	1040.1
29.83	11.06	5.74	1135.5	1040.3
29.84	11.06	5.74	1135.3	1039.9
29.85	11.07	5.74	1135.7	1040.2
29.86	11.06	5.73	1135.3	1040.2
29.87	11.06	5.74	1135.3	1040.2
29.88	11.06	5.73	1134.9	1040.2
29.89	11.07	5.74	1135.0	1040.2
29.9	11.06	5.74	1134.8	1040.4
29.91	11.06	5.73	1135.0	1040.1
29.92	11.06	5.74	1134.8	1039.9
29.93	11.05	5.73	1135.3	1039.9
29.94	11.07	5.74	1134.7	1040.0
29.95	11.06	5.73	1134.7	1039.9
29.96	11.06	5.74	1134.9	1040.0
29.97	11.06	5.73	1135.1	1040.1
29.98	11.07	5.73	1134.7	1040.0
29.99	11.06	5.73	1134.7	1040.3
30.0	11.06	5.73	1134.5	1040.3
30.01	11.05	5.73	1134.9	1040.1
30.02	11.07	5.73	1134.4	1040.2
30.03	11.05	5.73	1134.8	1040.2
30.04	11.08	5.74	1134.9	1039.9
30.05	11.06	5.73	1135.3	1039.9
30.06	11.06	5.73	1134.4	1039.9
30.07	11.05	5.73	1134.5	1039.8
30.08	11.06	5.73	1134.5	1039.7
30.09	11.07	5.73	1134.8	1039.6
30.1	11.07	5.73	1134.7	1039.9
30.11	11.06	5.73	1134.7	1039.6
30.12	11.06	5.73	1134.5	1039.7
30.13	11.04	5.73	1135.0	1039.8
30.14	11.06	5.73	1134.2	1039.7
30.15	11.06	5.73	1134.8	1039.6
30.16	11.06	5.72	1135.0	1039.7
30.17	11.06	5.73	1134.4	1039.4
30.18	11.06	5.73	1134.3	1039.3
30.19	11.05	5.73	1134.3	1039.5
30.2	11.06	5.73	1134.3	1039.7
30.21	11.04	5.72	1134.2	1039.6
30.22	11.06	5.72	1134.3	1039.5
30.23	11.05	5.72	1134.2	1039.7
30.24	11.06	5.72	1133.6	1039.8
30.25	11.06	5.72	1134.3	1040.0
30.26	11.06	5.72	1133.8	1039.6
30.27	11.06	5.73	1134.2	1039.5
30.28	11.06	5.72	1133.9	1039.4
30.29	11.06	5.72	1133.9	1039.5
30.3	11.06	5.72	1133.5	1039.5
30.31	11.06	5.72	1134.0	1039.6
30.32	11.06	5.72	1133.8	1039.5
30.33	11.07	5.72	1134.2	1039.4
30.34	11.05	5.72	1133.7	1039.3
30.35	11.06	5.72	1134.2	1039.1
30.36	11.05	5.72	1134.0	1039.3
30.37	11.06	5.72	1133.5	1039.3
30.38	11.06	5.72	1133.5	1039.3
30.39	11.07	5.72	1134.0	1039.4
30.4	11.06	5.72	1133.9	1039.0
30.41	11.06	5.72	1133.4	1039.0
30.42	11.06	5.72	1133.2	1038.8
30.43	11.06	5.72	1134.2	1039.1
30.44	11.06	5.72	1133.2	1038.8
30.45	11.06	5.72	1133.5	1038.9
30.46	11.06	5.72	1132.9	1038.8
30.47	11.06	5.72	1133.5	1039.0
30.48	11.06	5.72	1133.3	1038.7
30.49	11.06	5.72	1133.7	1039.1
30.5	11.06	5.72	1133.0	1038.8
30.51	11.07	5.72	1133.6	1038.9
30.52	11.05	5.71	1132.9	1038.9
30.53	11.07	5.72	1133.1	1039.0
30.54	11.06	5.71	1132.7	1039.0
30.55	11.07	5.72	1133.1	1038.9
30.56	11.06	5.72	1132.6	1039.1
30.57	11.06	5.71	1132.3	1038.8
30.58	11.06	5.71	1132.8	1038.7
30.59	11.06	5.71	1133.3	1039.1
30.6	11.06	5.71	1132.8	1038.6
30.61	11.05	5.71	1133.0	1038.6
30.62	11.07	5.72	1132.7	1038.7
30.63	11.05	5.71	1132.6	1038.7
30.64	11.06	5.71	1132.9	1038.5
30.65	11.05	5.71	1132.4	1038.5
30.66	11.06	5.71	1132.4	1038.6
30.67	11.05	5.71	1132.5	1038.8
30.68	11.06	5.71	1132.6	1038.4
30.69	11.05	5.71	1132.5	1038.5
30.7	11.06	5.71	1132.6	1038.4
30.71	11.06	5.71	1132.5	1038.6
30.72	11.07	5.71	1132.4	1038.4
30.73	11.06	5.71	1132.1	1038.4
30.74	11.07	5.71	1132.4	1038.2
30.75	11.05	5.7	1132.8	1038.3
30.76	11.07	5.71	1132.5	1038.4
30.77	11.07	5.71	1132.2	1038.4
30.78	11.06	5.71	1132.2	1038.1
30.79	11.06	5.71	1132.4	1038.1
30.8	11.07	5.71	1132.4	1038.1
30.81	11.05	5.7	1131.9	1038.1
30.82	11.06	5.71	1132.7	1038.2
30.83	11.06	5.71	1132.2	1038.0
30.84	11.07	5.71	1132.3	1037.9
30.85	11.06	5.71	1131.9	1038.2
30.86	11.06	5.7	1131.7	1038.1
30.87	11.06	5.7	1132.8	1038.0
30.88	11.06	5.71	1131.9	1037.9
30.89	11.06	5.71	1132.0	1038.0
30.9	11.07	5.71	1131.9	1037.8
30.91	11.06	5.7	1132.0	1037.9
30.92	11.06	5.7	1131.4	1037.9
30.93	11.05	5.7	1131.4	1037.8
30.94	11.05	5.7	1131.3	1037.8
30.95	11.07	5.7	1131.4	1037.9
30.96	11.06	5.7	1131.9	1037.8
30.97	11.06	5.7	1131.9	1038.0
30.98	11.06	5.7	1131.6	1037.9
30.99	11.06	5.7	1131.5	1037.8
31.0	11.06	5.7	1131.7	1038.0
31.01	11.06	5.7	1131.4	1037.8
31.02	11.06	5.7	1131.3	1037.8
31.03	11.06	5.7	1131.6	1037.8
31.04	11.06	5.7	1131.4	1037.5
31.05	11.06	5.7	1131.3	1037.6
31.06	11.06	5.7	1131.5	1037.7
31.07	11.05	5.7	1131.4	1037.6
31.08	11.07	5.7	1131.3	1037.5
31.09	11.05	5.7	1131.1	1037.6
31.1	11.06	5.7	1131.3	1037.6
31.11	11.06	5.7	1131.2	1037.6
31.12	11.05	5.7	1131.2	1037.5
31.13	11.06	5.7	1131.3	1037.2
31.14	11.06	5.7	1131.1	1037.5
31.15	11.06	5.7	1131.1	1037.5
31.16	11.05	5.7	1130.7	1037.8
31.17	11.05	5.69	1130.7	1037.7
31.18	11.06	5.7	1131.2	1037.7
31.19	11.06	5.7	1130.9	1037.5
31.2	11.05	5.69	1130.6	1037.4
31.21	11.07	5.7	1131.2	1037.5
31.22	11.05	5.69	1130.8	1037.3
31.23	11.07	5.7	1130.6	1037.5
31.24	11.06	5.7	1130.2	1037.5
31.25	11.06	5.69	1130.4	1037.6
31.26	11.06	5.69	1130.8	1037.7
31.27	11.06	5.69	1130.4	1037.4
31.28	11.07	5.7	1130.5	1037.3
31.29	11.06	5.69	1130.5	1037.3
31.3	11.07	5.7	1130.6	1037.3
31.31	11.06	5.69	1130.2	1037.4
31.32	11.06	5.69	1130.1	1037.3
31.33	11.06	5.69	1130.5	1037.1
31.34	11.06	5.69	1130.4	1037.2
31.35	11.06	5.69	1130.2	1037.3
31.36	11.06	5.69	1130.0	1037.2
31.37	11.07	5.69	1130.5	1037.3
31.38	11.05	5.69	1130.1	1037.4
31.39	11.06	5.69	1130.0	1037.1
31.4	11.05	5.69	1129.9	1037.4
31.41	11.04	5.68	1130.3	1037.2
31.42	11.06	5.69	1129.8	1037.3
31.43	11.06	5.69	1130.4	1037.2
31.44	11.07	5.69	1129.7	1037.1
31.45	11.04	5.69	1130.0	1037.2
31.46	11.06	5.69	1129.9	1037.3
31.47	11.06	5.69	1130.3	1037.3
31.48	11.05	5.68	1129.7	1037.3
31.49	11.06	5.68	1130.0	1037.4
31.5	11.07	5.69	1129.8	1037.2
31.51	11.05	5.69	1130.3	1037.2
31.52	11.08	5.69	1130.0	1037.3
31.53	11.06	5.69	1129.9	1037.3
31.54	11.07	5.69	1129.8	1037.2
31.55	11.05	5.68	1129.6	1037.1
31.56	11.05	5.68	1129.4	1037.1
31.57	11.06	5.69	1130.2	1036.9
31.58	11.06	5.68	1130.0	1036.9
31.59	11.06	5.69	1130.0	1037.0
31.6	11.07	5.69	1129.3	1037.1
31.61	11.06	5.69	1129.8	1037.0
31.62	11.06	5.68	1129.8	1036.7
31.63	11.06	5.68	1129.2	1037.0
31.64	11.06	5.68	1129.2	1036.8
31.65	11.05	5.68	1129.8	1037.0
31.66	11.05	5.68	1129.1	1036.9
31.67	11.06	5.68	1129.2	1036.9
31.68	11.06	5.68	1129.4	1036.7
31.69	11.06	5.68	1129.7	1037.1
31.7	11.06	5.68	1129.1	1036.9
31.71	11.06	5.68	1128.8	1036.8
31.72	11.06	5.68	1129.4	1037.1
31.73	11.05	5.68	1129.2	1036.8
31.74	11.05	5.68	1129.5	1036.8
31.75	11.06	5.68	1129.4	1036.6
31.76	11.06	5.68	1129.1	1036.7
31.77	11.07	5.68	1129.6	1036.6
31.78	11.07	5.69	1129.0	1036.7
31.79	11.05	5.67	1128.6	1036.8
31.8	11.06	5.68	1128.9	1036.4
31.81	11.06	5.68	1129.0	1036.5
31.82	11.06	5.68	1128.9	1036.5
31.83	11.07	5.68	1129.0	1036.6
31.84	11.05	5.67	1128.9	1036.7
31.85	11.07	5.68	1129.0	1036.4
31.86	11.06	5.68	1129.0	1036.6
31.87	11.06	5.68	1128.4	1036.3
31.88	11.06	5.68	1129.1	1036.6
31.89	11.05	5.67	1129.3	1036.6
31.9	11.07	5.68	1129.0	1036.8
31.91	11.07	5.68	1128.7	1036.6
31.92	11.05	5.67	1129.0	1036.5
31.93	11.06	5.68	1128.9	1036.4
31.94	11.06	5.68	1128.7	1036.4
31.95	11.07	5.68	1128.4	1036.6
31.96	11.07	5.68	1128.9	1036.4
31.97	11.06	5.68	1128.7	1036.2
31.98	11.07	5.68	1128.2	1036.2
31.99	11.07	5.67	1128.4	1036.5
32.0	11.07	5.67	1128.8	1036.4
32.01	11.06	5.67	1128.6	1036.4
32.02	11.05	5.67	1128.8	1036.3
32.03	11.06	5.67	1128.8	1036.5
32.04	11.07	5.67	1128.8	1036.3
32.05	11.07	5.67	1128.5	1036.3
32.06	11.07	5.68	1128.6	1036.3
32.07	11.06	5.67	1128.1	1036.3
32.08	11.06	5.67	1128.4	1036.4
32.09	11.05	5.67	1128.3	1036.4
32.1	11.06	5.67	1128.0	1036.4
32.11	11.06	5.67	1128.2	1036.6
32.12	11.07	5.67	1128.3	1036.1
32.13	11.05	5.67	1127.8	1036.2
32.14	11.06	5.67	1127.5	1035.9
32.15	11.05	5.67	1128.1	1036.1
32.16	11.06	5.67	1127.6	1036.3
32.17	11.05	5.67	1127.9	1036.4
32.18	11.05	5.67	1127.6	1036.2
32.19	11.06	5.67	1128.1	1036.3
32.2	11.06	5.67	1127.6	1036.1
32.21	11.06	5.67	1128.1	1036.3
32.22	11.06	5.67	1127.4	1036.3
32.23	11.05	5.66	1127.9	1036.3
32.24	11.07	5.67	1127.1	1036.0
32.25	11.05	5.67	1127.6	1036.1
32.26	11.06	5.66	1127.6	1036.2
32.27	11.06	5.67	1127.5	1035.9
32.28	11.06	5.67	1126.9	1035.9
32.29	11.06	5.67	1127.7	1036.0
32.3	11.08	5.67	1127.3	1036.2
32.31	11.05	5.66	1128.0	1036.1
32.32	11.07	5.67	1127.8	1036.2
32.33	11.06	5.67	1127.8	1036.0
32.34	11.06	5.66	1127.4	1035.9
32.35	11.06	5.66	1127.1	1035.8
32.36	11.05	5.66	1127.4	1035.9
32.37	11.07	5.67	1127.5	1035.9
32.38	11.06	5.66	1127.6	1036.0
32.39	11.06	5.67	1127.4	1035.8
32.4	11.06	5.67	1126.8	1035.8
32.41	11.06	5.66	1127.3	1036.0
32.42	11.05	5.66	1126.7	1035.9
32.43	11.06	5.66	1127.2	1035.7
32.44	11.05	5.66	1126.8	1035.6
32.45	11.07	5.66	1126.6	1035.8
32.46	11.06	5.66	1127.1	1035.6
32.47	11.06	5.66	1127.0	1035.8
32.48	11.06	5.67	1126.8	1035.7
32.49	11.06	5.66	1127.3	1035.8
32.5	11.07	5.67	1127.4	1035.8
32.51	11.06	5.66	1127.7	1035.7
32.52	11.05	5.66	1127.3	1035.7
32.53	11.06	5.66	1127.1	1036.0
32.54	11.06	5.66	1126.5	1035.7
32.55	11.06	5.66	1126.9	1035.8
32.56	11.06	5.66	1126.7	1035.5
32.57	11.06	5.66	1126.6	1035.6
32.58	11.06	5.66	1126.6	1035.5
32.59	11.07	5.66	1126.5	1035.4
32.6	11.05	5.66	1126.4	1035.5
32.61	11.06	5.66	1125.7	1035.7
32.62	11.06	5.66	1126.5	1035.4
32.63	11.05	5.66	1126.9	1035.5
32.64	11.06	5.66	1126.9	1035.5
32.65	11.06	5.66	1126.2	1035.6
32.66	11.06	5.66	1126.3	1035.3
32.67	11.06	5.65	1126.0	1035.4
32.68	11.06	5.66	1126.4	1035.5
32.69	11.06	5.66	1126.0	1035.3
32.7	11.05	5.65	1126.3	1035.4
32.71	11.06	5.66	1126.2	1035.4
32.72	11.07	5.66	1126.2	1035.6
32.73	11.06	5.65	1125.8	1035.5
32.74	11.07	5.66	1126.2	1035.2
32.75	11.06	5.66	1126.0	1035.4
32.76	11.06	5.65	1125.6	1035.4
32.77	11.06	5.66	1125.8	1035.3
32.78	11.06	5.65	1126.0	1035.2
32.79	11.06	5.66	1126.1	1035.2
32.8	11.07	5.65	1125.6	1035.1
32.81	11.06	5.66	1125.8	1035.2
32.82	11.06	5.65	1126.0	1035.1
32.83	11.06	5.65	1126.2	1035.2
32.84	11.07	5.65	1126.0	1035.2
32.85	11.07	5.65	1125.7	1035.2
32.86	11.06	5.65	1126.0	1034.9
32.87	11.05	5.65	1125.6	1035.3
32.88	11.07	5.66	1125.7	1035.0
32.89	11.06	5.65	1125.3	1034.8
32.9	11.06	5.65	1125.6	1034.9
32.91	11.06	5.65	1125.6	1035.2
32.92	11.06	5.65	1125.1	1034.8
32.93	11.06	5.65	1125.1	1034.9
32.94	11.06	5.65	1125.2	1034.8
32.95	11.05	5.65	1125.2	1035.0
32.96	11.06	5.65	1124.7	1034.9
32.97	11.06	5.65	1124.9	1034.9
32.98	11.06	5.65	1125.5	1035.2
32.99	11.06	5.65	1125.1	1035.0
33.0	11.06	5.65	1125.4	1035.2
33.01	11.05	5.64	1125.4	1034.9
33.02	11.06	5.65	1125.2	1034.9
33.03	11.06	5.65	1125.0	1034.9
33.04	11.06	5.65	1124.8	1034.8
33.05	11.06	5.65	1125.3	1034.7
33.06	11.06	5.65	1125.1	1035.1
33.07	11.07	5.65	1125.3	1034.9
33.08	11.06	5.65	1124.7	1034.8
33.09	11.06	5.64	1124.8	1034.8
33.1	11.07	5.65	1124.9	1034.8
33.11	11.06	5.64	1124.6	1035.1
33.12	11.06	5.65	1124.1	1034.7
33.13	11.07	5.65	1124.9	1034.7
33.14	11.05	5.64	1124.6	1034.7
33.15	11.07	5.65	1124.5	1034.9
33.16	11.05	5.64	1124.6	1034.8
33.17	11.06	5.65	1125.3	1034.6
33.18	11.05	5.64	1124.2	1034.7
33.19	11.06	5.64	1125.1	1034.7
33.2	11.05	5.64	1124.9	1034.5
33.21	11.07	5.65	1124.9	1034.6
33.22	11.06	5.64	1124.0	1034.6
33.23	11.06	5.65	1124.5	1034.6
33.24	11.06	5.64	1124.4	1034.6
33.25	11.06	5.64	1123.8	1034.7
33.26	11.06	5.64	1123.7	1034.5
33.27	11.06	5.64	1124.2	1034.6
33.28	11.07	5.65	1123.3	1034.5
33.29	11.07	5.64	1124.6	1034.7
33.3	11.06	5.64	1124.1	1034.5
33.31	11.06	5.64	1123.9	1034.6
33.32	11.05	5.64	1123.9	1034.4
33.33	11.07	5.64	1124.3	1034.2
33.34	11.06	5.64	1123.6	1034.3
33.35	11.07	5.64	1124.0	1034.5
33.36	11.06	5.64	1124.0	1034.6
33.37	11.06	5.64	1124.0	1034.3
33.38	11.06	5.64	1124.1	1034.2
33.39	11.06	5.64	1124.1	1034.4
33.4	11.06	5.64	1123.7	1034.4
33.41	11.06	5.64	1124.3	1034.3
33.42	11.06	5.64	1123.6	1034.4
33.43	11.07	5.64	1123.8	1034.4
33.44	11.06	5.64	1123.7	1034.4
33.45	11.06	5.64	1123.7	1034.4
33.46	11.06	5.64	1123.5	1034.3
33.47	11.05	5.63	1123.6	1034.3
33.48	11.06	5.63	1123.4	1034.4
33.49	11.06	5.64	1124.2	1034.4
33.5	11.07	5.64	1123.9	1034.3
33.51	11.07	5.64	1124.0	1034.3
33.52	11.06	5.64	1123.6	1034.4
33.53	11.06	5.64	1123.8	1034.1
33.54	11.06	5.64	1122.9	1034.2
33.55	11.05	5.63	1123.1	1034.4
33.56	11.06	5.64	1123.5	1034.2
33.57	11.06	5.64	1123.5	1034.1
33.58	11.07	5.63	1123.6	1034.2
33.59	11.06	5.64	1123.3	1034.2
33.6	11.06	5.63	1123.3	1034.1
33.61	11.05	5.63	1123.6	1034.0
33.62	11.06	5.63	1123.2	1033.8
33.63	11.05	5.63	1123.2	1034.1
33.64	11.06	5.63	1123.1	1034.1
33.65	11.06	5.64	1123.1	1034.0
33.66	11.06	5.63	1122.9	1034.0
33.67	11.06	5.63	1123.1	1034.2
33.68	11.05	5.63	1123.0	1034.1
33.69	11.06	5.63	1123.5	1034.1
33.7	11.07	5.63	1122.9	1034.1
33.71	11.04	5.63	1123.2	1034.0
33.72	11.05	5.63	1123.1	1033.9
33.73	11.06	5.63	1122.9	1034.1
33.74	11.06	5.63	1122.8	1033.8
33.75	11.06	5.63	1123.0	1034.4
33.76	11.05	5.63	1123.0	1034.0
33.77	11.06	5.63	1122.5	1033.8
33.78	11.06	5.63	1122.0	1034.0
33.79	11.05	5.63	1122.1	1033.8
33.8	11.06	5.63	1122.7	1033.7
33.81	11.06	5.63	1122.3	1033.9
33.82	11.06	5.63	1122.2	1033.5
33.83	11.06	5.63	1122.3	1033.8
33.84	11.07	5.63	1122.4	1033.7
33.85	11.07	5.63	1122.2	1033.6
33.86	11.05	5.62	1122.5	1033.8
33.87	11.06	5.63	1121.9	1033.8
33.88	11.06	5.63	1122.1	1033.6
33.89	11.06	5.62	1121.9	1033.7
33.9	11.06	5.63	1121.7	1033.6
33.91	11.06	5.63	1121.9	1033.5
33.92	11.05	5.63	1122.0	1033.5
33.93	11.07	5.63	1122.0	1033.6
33.94	11.05	5.63	1121.5	1033.6
33.95	11.06	5.63	1122.0	1033.6
33.96	11.05	5.63	1122.0	1033.6
33.97	11.06	5.62	1121.7	1033.8
33.98	11.06	5.63	1121.5	1033.6
33.99	11.07	5.63	1121.8	1033.5
34.0	11.06	5.63	1121.4	1033.4
34.01	11.07	5.63	1121.4	1033.4
34.02	11.04	5.62	1121.1	1033.2
34.03	11.07	5.63	1121.5	1033.3
34.04	11.05	5.62	1121.2	1033.2
34.05	11.06	5.63	1121.5	1033.3
34.06	11.05	5.63	1121.0	1033.3
34.07	11.06	5.62	1120.8	1033.2
34.08	11.07	5.63	1121.0	1033.3
34.09	11.06	5.62	1121.2	1033.4
34.1	11.07	5.63	1120.4	1033.2
34.11	11.06	5.63	1121.0	1033.2
34.12	11.07	5.63	1121.0	1033.2
34.13	11.06	5.62	1121.0	1033.2
34.14	11.06	5.62	1120.5	1033.2
34.15	11.06	5.62	1120.2	1033.1
34.16	11.06	5.63	1120.7	1033.3
34.17	11.06	5.62	1120.7	1033.5
34.18	11.07	5.63	1120.2	1033.3
34.19	11.07	5.62	1120.6	1033.1
34.2	11.07	5.62	1120.7	1033.1
34.21	11.06	5.62	1120.9	1033.3
34.22	11.06	5.62	1120.5	1033.1
34.23	11.05	5.62	1120.5	1033.1
34.24	11.07	5.62	1120.6	1033.1
34.25	11.06	5.62	1120.5	1033.1
34.26	11.07	5.62	1120.1	1032.9
34.27	11.05	5.62	1121.0	1032.8
34.28	11.06	5.62	1120.5	1032.9
34.29	11.05	5.62	1120.7	1033.1
34.3	11.06	5.62	1120.1	1033.0
34.31	11.06	5.62	1120.5	1032.9
34.32	11.06	5.62	1120.3	1032.8
34.33	11.05	5.62	1120.5	1032.9
34.34	11.07	5.62	1120.3	1033.0
34.35	11.06	5.62	1120.9	1032.7
34.36	11.07	5.62	1120.0	1032.8
34.37	11.06	5.62	1120.1	1032.8
34.38	11.06	5.61	1119.8	1033.0
34.39	11.06	5.62	1120.4	1033.0
34.4	11.07	5.62	1119.8	1032.8
34.41	11.06	5.62	1119.9	1032.9
34.42	11.06	5.62	1119.7	1032.6
34.43	11.06	5.62	1119.8	1032.7
34.44	11.06	5.61	1119.4	1032.7
34.45	11.05	5.61	1119.7	1032.8
34.46	11.06	5.61	1119.2	1032.5
34.47	11.06	5.62	1119.6	1032.6
34.48	11.06	5.62	1119.6	1032.4
34.49	11.06	5.62	1120.1	1032.6
34.5	11.06	5.62	1119.0	1032.5
34.51	11.05	5.61	1119.8	1032.8
34.52	11.07	5.62	1119.6	1032.8
34.53	11.05	5.61	1119.9	1032.6
34.54	11.06	5.61	1119.7	1032.7
34.55	11.07	5.62	1119.9	1032.5
34.56	11.05	5.61	1119.8	1032.6
34.57	11.06	5.61	1120.0	1032.5
34.58	11.06	5.61	1119.3	1032.6
34.59	11.06	5.61	1119.3	1032.7
34.6	11.06	5.61	1119.2	1032.6
34.61	11.07	5.61	1119.3	1032.5
34.62	11.06	5.61	1118.7	1032.6
34.63	11.07	5.61	1119.2	1032.4
34.64	11.06	5.61	1119.0	1032.2
34.65	11.06	5.61	1119.3	1032.3
34.66	11.06	5.61	1119.1	1032.5
34.67	11.07	5.61	1119.6	1032.5
34.68	11.06	5.61	1118.8	1032.3
34.69	11.06	5.61	1119.2	1032.4
34.7	11.06	5.61	1118.8	1032.3
34.71	11.07	5.61	1119.0	1032.3
34.72	11.05	5.61	1118.7	1032.4
34.73	11.06	5.61	1118.9	1032.2
34.74	11.05	5.61	1118.6	1032.3
34.75	11.06	5.61	1119.2	1032.3
34.76	11.06	5.61	1119.0	1032.2
34.77	11.05	5.61	1118.9	1032.3
34.78	11.06	5.61	1118.4	1032.5
34.79	11.06	5.61	1119.0	1032.3
34.8	11.05	5.61	1118.5	1032.2
34.81	11.06	5.61	1118.1	1032.3
34.82	11.06	5.61	1118.3	1032.4
34.83	11.06	5.61	1119.2	1032.4
34.84	11.06	5.61	1118.7	1032.2
34.85	11.06	5.61	1118.3	1032.4
34.86	11.06	5.61	1118.4	1032.2
34.87	11.06	5.61	1117.7	1032.2
34.88	11.06	5.61	1117.9	1032.4
34.89	11.05	5.6	1117.7	1032.2
34.9	11.06	5.61	1118.2	1032.1
34.91	11.05	5.61	1118.4	1031.9
34.92	11.07	5.61	1118.1	1032.1
34.93	11.06	5.61	1117.8	1031.8
34.94	11.06	5.61	1118.1	1032.1
34.95	11.06	5.6	1117.7	1032.0
34.96	11.06	5.61	1117.5	1031.9
34.97	11.05	5.6	1117.8	1031.8
34.98	11.06	5.6	1117.7	1031.9
34.99	11.06	5.6	1118.0	1031.8
35.0	11.05	5.6	1117.7	1031.7
35.01	11.07	5.61	1117.6	1031.6
35.02	11.06	5.61	1117.8	1031.8
35.03	11.05	5.6	1117.8	1031.6
35.04	11.08	5.61	1117.7	1031.7
35.05	11.05	5.6	1117.1	1031.7
35.06	11.06	5.6	1117.6	1031.6
35.07	11.06	5.6	1117.3	1031.7
35.08	11.06	5.6	1117.4	1031.7
35.09	11.06	5.6	1117.1	1031.7
35.1	11.06	5.6	1117.5	1031.7
35.11	11.05	5.6	1117.9	1031.5
35.12	11.07	5.6	1117.0	1031.5
35.13	11.07	5.6	1116.9	1031.7
35.14	11.06	5.6	1116.8	1031.8
35.15	11.06	5.6	1117.2	1031.4
35.16	11.06	5.6	1117.1	1031.6
35.17	11.07	5.6	1116.7	1031.4
35.18	11.06	5.61	1117.2	1031.5
35.19	11.07	5.61	1117.1	1031.4
35.2	11.06	5.6	1116.6	1031.5
35.21	11.05	5.6	1116.8	1031.3
35.22	11.07	5.6	1116.8	1031.2
35.23	11.06	5.6	1117.2	1031.2
35.24	11.05	5.6	1117.1	1031.3
35.25	11.06	5.6	1117.0	1031.5
35.26	11.06	5.6	1116.8	1031.3
35.27	11.06	5.6	1116.7	1031.5
35.28	11.06	5.6	1116.6	1031.4
35.29	11.07	5.6	1116.7	1031.2
35.3	11.05	5.6	1116.4	1031.0
35.31	11.06	5.6	1116.9	1031.0
35.32	11.05	5.59	1116.3	1031.1
35.33	11.06	5.6	1117.0	1031.2
35.34	11.05	5.6	1115.9	1031.2
35.35	11.07	5.6	1116.5	1031.2
35.36	11.06	5.6	1115.9	1031.4
35.37	11.06	5.6	1116.6	1031.0
35.38	11.06	5.6	1116.3	1031.1
35.39	11.06	5.59	1116.1	1031.1
35.4	11.06	5.6	1116.0	1031.2
35.41	11.06	5.6	1116.2	1031.2
35.42	11.05	5.6	1116.3	1031.1
35.43	11.07	5.6	1115.8	1031.1
35.44	11.06	5.6	1116.1	1031.1
35.45	11.07	5.6	1116.2	1031.1
35.46	11.06	5.6	1116.2	1031.0
35.47	11.06	5.59	1115.5	1031.1
35.48	11.04	5.59	1116.0	1031.2
35.49	11.06	5.59	1116.4	1031.2
35.5	11.05	5.59	1115.9	1031.3
35.51	11.05	5.59	1115.9	1031.2
35.52	11.06	5.59	1116.1	1031.0
35.53	11.06	5.6	1115.8	1031.1
35.54	11.06	5.6	1115.7	1030.9
35.55	11.06	5.6	1115.6	1031.0
35.56	11.06	5.59	1115.9	1031.0
35.57	11.05	5.59	1115.5	1031.0
35.58	11.06	5.59	1115.5	1030.8
35.59	11.06	5.59	1115.2	1030.8
35.6	11.06	5.59	1115.6	1030.7
35.61	11.07	5.6	1115.1	1030.9
35.62	11.06	5.59	1115.4	1030.8
35.63	11.06	5.59	1115.4	1030.7
35.64	11.06	5.59	1115.7	1030.7
35.65	11.06	5.59	1115.6	1031.0
35.66	11.07	5.59	1115.5	1030.8
35.67	11.05	5.59	1114.9	1030.8
35.68	11.05	5.59	1115.1	1030.7
35.69	11.07	5.59	1115.5	1030.7
35.7	11.07	5.6	1114.5	1030.8
35.71	11.06	5.59	1114.7	1030.6
35.72	11.06	5.59	1115.3	1030.6
35.73	11.05	5.59	1115.5	1030.4
35.74	11.07	5.59	1114.9	1030.7
35.75	11.05	5.59	1115.2	1030.6
35.76	11.06	5.59	1115.2	1030.4
35.77	11.07	5.59	1114.9	1030.4
35.78	11.06	5.59	1115.0	1030.3
35.79	11.06	5.59	1114.3	1030.1
35.8	11.07	5.59	1115.1	1030.5
35.81	11.06	5.59	1114.8	1030.4
35.82	11.07	5.6	1114.6	1030.1
35.83	11.05	5.58	1114.5	1030.2
35.84	11.07	5.59	1114.5	1030.3
35.85	11.06	5.59	1114.7	1030.2
35.86	11.06	5.59	1114.5	1030.0
35.87	11.07	5.59	1114.6	1030.2
35.88	11.07	5.59	1114.8	1030.0
35.89	11.06	5.59	1114.9	1030.3
35.9	11.05	5.59	1113.9	1030.1
35.91	11.06	5.59	1113.9	1030.2
35.92	11.06	5.59	1114.4	1030.0
35.93	11.06	5.58	1113.9	1030.0
35.94	11.05	5.58	1114.1	1030.2
35.95	11.07	5.59	1114.0	1030.2
35.96	11.05	5.58	1114.3	1030.1
35.97	11.05	5.58	1114.0	1030.1
35.98	11.04	5.58	1113.8	1030.2
35.99	11.06	5.58	1114.3	1030.0
36.0	11.06	5.59	1113.9	1030.0
36.01	11.05	5.58	1114.0	1029.9
36.02	11.05	5.58	1113.8	1030.0
36.03	11.06	5.59	1114.2	1030.0
36.04	11.06	5.58	1114.1	1030.0
36.05	11.06	5.58	1114.2	1030.0
36.06	11.06	5.59	1113.5	1029.9
36.07	11.07	5.58	1114.3	1030.0
36.08	11.06	5.59	1114.4	1030.0
36.09	11.05	5.58	1113.9	1030.2
36.1	11.06	5.59	1113.6	1029.9
36.11	11.06	5.58	1113.4	1030.2
36.12	11.07	5.59	1113.4	1030.0
36.13	11.06	5.58	1113.7	1030.0
36.14	11.07	5.59	1113.6	1030.2
36.15	11.06	5.58	1113.5	1030.1
36.16	11.05	5.58	1113.0	1030.0
36.17	11.07	5.59	1113.0	1029.9
36.18	11.06	5.58	1112.8	1030.0
36.19	11.06	5.58	1113.8	1030.1
36.2	11.05	5.58	1113.6	1029.8
36.21	11.06	5.58	1113.8	1029.8
36.22	11.06	5.58	1113.3	1029.6
36.23	11.07	5.58	1113.5	1029.8
36.24	11.05	5.58	1113.2	1029.6
36.25	11.06	5.58	1113.7	1029.8
36.26	11.05	5.58	1113.2	1029.5
36.27	11.05	5.58	1113.4	1029.8
36.28	11.06	5.58	1113.7	1029.9
36.29	11.05	5.58	1113.5	1029.6
36.3	11.07	5.58	1113.0	1029.6
36.31	11.05	5.58	1113.0	1029.6
36.32	11.07	5.58	1112.8	1029.7
36.33	11.06	5.58	1113.1	1030.0
36.34	11.06	5.58	1113.0	1029.7
36.35	11.04	5.57	1113.0	1029.8
36.36	11.07	5.58	1113.2	1029.6
36.37	11.07	5.58	1112.8	1029.8
36.38	11.06	5.58	1112.6	1029.6
36.39	11.06	5.58	1112.9	1029.7
36.4	11.06	5.58	1113.1	1029.5
36.41	11.06	5.58	1112.5	1029.6
36.42	11.07	5.58	1112.5	1029.5
36.43	11.07	5.58	1112.8	1029.5
36.44	11.06	5.58	1112.6	1029.4
36.45	11.05	5.58	1112.6	1029.1
36.46	11.06	5.58	1112.5	1029.1
36.47	11.05	5.58	1113.1	1029.2
36.48	11.07	5.58	1112.6	1029.1
36.49	11.06	5.58	1112.2	1029.0
36.5	11.07	5.58	1112.3	1029.2
36.51	11.06	5.58	1112.6	1029.1
36.52	11.06	5.58	1112.6	1029.3
36.53	11.06	5.57	1112.6	1029.0
36.54	11.07	5.58	1112.5	1029.4
36.55	11.06	5.58	1112.5	1029.1
36.56	11.07	5.57	1112.1	1029.2
36.57	11.07	5.58	1112.5	1029.1
36.58	11.06	5.57	1112.7	1029.2
36.59	11.06	5.58	1112.5	1029.1
36.6	11.06	5.57	1112.3	1029.3
36.61	11.06	5.57	1112.0	1029.1
36.62	11.06	5.57	1112.1	1029.3
36.63	11.06	5.58	1112.0	1029.3
36.64	11.07	5.58	1112.2	1029.2
36.65	11.06	5.58	1112.3	1029.2
36.66	11.06	5.57	1111.9	1029.4
36.67	11.06	5.57	1112.1	1029.4
36.68	11.05	5.57	1112.0	1029.4
36.69	11.06	5.57	1111.9	1029.2
36.7	11.06	5.57	1111.8	1029.2
36.71	11.05	5.57	1112.0	1029.2
36.72	11.06	5.58	1111.8	1029.2
36.73	11.06	5.57	1111.6	1029.6
36.74	11.06	5.57	1111.9	1029.2
36.75	11.07	5.58	1112.1	1029.6
36.76	11.05	5.57	1111.8	1029.5
36.77	11.06	5.57	1111.6	1029.4
36.78	11.06	5.57	1111.5	1029.5
36.79	11.06	5.57	1111.6	1029.4
36.8	11.07	5.58	1111.4	1029.1
36.81	11.06	5.57	1111.4	1029.3
36.82	11.06	5.57	1111.7	1029.2
36.83	11.06	5.57	1111.7	1029.2
36.84	11.06	5.57	1111.5	1029.2
36.85	11.06	5.57	1111.4	1029.0
36.86	11.06	5.57	1111.9	1029.1
36.87	11.06	5.57	1111.7	1029.1
36.88	11.06	5.57	1111.6	1029.3
36.89	11.06	5.57	1111.2	1029.1
36.9	11.06	5.57	1111.6	1029.1
36.91	11.06	5.57	1111.6	1029.2
36.92	11.05	5.57	1111.5	1029.1
36.93	11.06	5.57	1111.2	1029.3
36.94	11.06	5.57	1111.4	1029.2
36.95	11.06	5.57	1111.3	1029.3
36.96	11.06	5.57	1111.3	1029.0
36.97	11.07	5.57	1111.4	1029.2
36.98	11.07	5.57	1111.6	1029.0
36.99	11.06	5.57	1111.5	1028.8
37.0	11.05	5.57	1111.3	1029.1
37.01	11.06	5.57	1110.6	1029.0
37.02	11.06	5.57	1111.5	1028.8
37.03	11.07	5.57	1111.4	1028.8
37.04	11.06	5.57	1111.5	1029.0
37.05	11.06	5.57	1111.0	1028.9
37.06	11.06	5.57	1111.1	1028.9
37.07	11.06	5.57	1110.9	1028.8
37.08	11.07	5.57	1111.3	1028.8
37.09	11.05	5.56	1111.0	1028.9
37.1	11.06	5.57	1111.1	1028.8
37.11	11.05	5.56	1111.4	1028.7
37.12	11.06	5.57	1111.0	1028.9
37.13	11.05	5.57	1111.0	1028.7
37.14	11.07	5.57	1111.1	1028.6
37.15	11.06	5.57	1110.4	1028.7
37.16	11.07	5.57	1110.2	1028.6
37.17	11.05	5.56	1110.8	1028.6
37.18	11.07	5.56	1110.6	1028.6
37.19	11.06	5.57	1110.6	1028.7
37.2	11.07	5.57	1110.2	1028.2
37.21	11.06	5.57	1110.8	1028.4
37.22	11.07	5.57	1110.6	1028.4
37.23	11.06	5.56	1109.8	1028.4
37.24	11.08	5.57	1109.5	1028.3
37.25	11.06	5.57	1111.1	1028.2
37.26	11.06	5.56	1110.2	1028.3
37.27	11.07	5.57	1109.8	1028.3
37.28	11.07	5.56	1109.9	1028.2
37.29	11.05	5.56	1110.2	1028.3
37.3	11.06	5.56	1109.9	1028.2
37.31	11.06	5.56	1109.7	1028.5
37.32	11.07	5.57	1109.0	1028.4
37.33	11.05	5.56	1110.2	1028.2
37.34	11.05	5.56	1109.6	1028.2
37.35	11.06	5.56	1109.7	1028.3
37.36	11.06	5.56	1109.4	1028.2
37.37	11.07	5.56	1110.0	1028.3
37.38	11.06	5.56	1109.5	1028.1
37.39	11.05	5.56	1109.6	1028.0
37.4	11.06	5.57	1109.2	1028.2
37.41	11.06	5.56	1109.6	1028.1
37.42	11.06	5.56	1109.4	1028.2
37.43	11.06	5.56	1109.9	1028.2
37.44	11.06	5.56	1109.6	1028.2
37.45	11.06	5.56	1110.0	1028.1
37.46	11.07	5.56	1109.9	1028.0
37.47	11.05	5.56	1109.5	1028.0
37.48	11.06	5.56	1109.3	1027.9
37.49	11.05	5.56	1109.5	1028.0
37.5	11.06	5.56	1109.6	1028.1
37.51	11.06	5.56	1109.0	1027.8
37.52	11.05	5.56	1108.8	1027.8
37.53	11.06	5.56	1109.3	1027.9
37.54	11.07	5.56	1109.1	1027.6
37.55	11.06	5.56	1109.8	1027.7
37.56	11.05	5.56	1109.0	1027.8
37.57	11.07	5.56	1109.0	1027.8
37.58	11.05	5.56	1109.0	1027.6
37.59	11.06	5.56	1109.0	1027.9
37.6	11.06	5.56	1108.9	1027.6
37.61	11.08	5.56	1108.7	1027.6
37.62	11.06	5.56	1109.3	1027.7
37.63	11.06	5.55	1108.8	1027.7
37.64	11.06	5.56	1108.7	1027.7
37.65	11.07	5.56	1109.1	1027.6
37.66	11.06	5.55	1108.7	1027.7
37.67	11.07	5.56	1108.6	1027.8
37.68	11.06	5.56	1108.7	1027.7
37.69	11.06	5.56	1108.8	1027.6
37.7	11.07	5.56	1108.8	1027.6
37.71	11.07	5.56	1108.0	1027.4
37.72	11.06	5.55	1108.0	1027.5
37.73	11.07	5.56	1108.5	1027.4
37.74	11.05	5.55	1108.3	1027.3
37.75	11.07	5.56	1108.4	1027.3
37.76	11.06	5.55	1107.4	1027.4
37.77	11.06	5.56	1108.6	1027.3
37.78	11.06	5.55	1107.8	1027.2
37.79	11.06	5.56	1108.1	1027.3
37.8	11.07	5.56	1108.1	1027.3
37.81	11.07	5.56	1108.7	1027.2
37.82	11.06	5.55	1108.1	1027.1
37.83	11.06	5.56	1107.6	1027.3
37.84	11.05	5.55	1107.7	1027.4
37.85	11.05	5.55	1108.5	1027.1
37.86	11.08	5.56	1107.6	1027.1
37.87	11.05	5.55	1107.9	1027.2
37.88	11.07	5.55	1108.0	1027.0
37.89	11.06	5.55	1108.2	1027.1
37.9	11.05	5.55	1107.9	1026.9
37.91	11.07	5.56	1107.6	1027.3
37.92	11.06	5.55	1108.0	1027.0
37.93	11.05	5.55	1107.9	1026.7
37.94	11.07	5.55	1108.3	1027.2
37.95	11.05	5.55	1108.0	1027.0
37.96	11.07	5.55	1107.6	1026.8
37.97	11.07	5.56	1108.2	1027.1
37.98	11.07	5.55	1107.8	1026.9
37.99	11.05	5.55	1107.5	1026.8
38.0	11.06	5.55	1107.3	1026.8
38.01	11.06	5.55	1107.6	1027.0
38.02	11.07	5.56	1107.9	1027.0
38.03	11.05	5.55	1107.3	1026.8
38.04	11.06	5.55	1108.0	1026.6
38.05	11.07	5.56	1107.9	1026.7
38.06	11.05	5.55	1107.6	1026.9
38.07	11.06	5.55	1107.3	1027.0
38.08	11.06	5.55	1106.9	1027.0
38.09	11.07	5.56	1107.0	1026.8
38.1	11.06	5.55	1107.4	1026.9
38.11	11.06	5.55	1107.3	1026.9
38.12	11.05	5.55	1107.3	1026.9
38.13	11.06	5.55	1107.2	1026.8
38.14	11.06	5.55	1106.7	1026.7
38.15	11.07	5.55	1107.0	1026.7
38.16	11.05	5.55	1107.1	1026.9
38.17	11.08	5.55	1106.7	1026.4
38.18	11.06	5.55	1106.6	1027.0
38.19	11.06	5.55	1106.5	1026.4
38.2	11.06	5.55	1106.7	1026.6
38.21	11.07	5.55	1107.0	1026.4
38.22	11.05	5.55	1106.4	1026.6
38.23	11.05	5.54	1106.2	1026.5
38.24	11.05	5.55	1106.3	1026.4
38.25	11.06	5.55	1107.0	1026.6
38.26	11.05	5.55	1106.7	1026.5
38.27	11.06	5.55	1106.8	1026.4
38.28	11.07	5.55	1106.7	1026.4
38.29	11.05	5.54	1106.4	1026.3
38.3	11.05	5.55	1106.2	1026.2
38.31	11.06	5.55	1105.7	1026.1
38.32	11.06	5.55	1106.2	1026.3
38.33	11.06	5.55	1106.4	1026.4
38.34	11.05	5.54	1106.2	1026.2
38.35	11.07	5.55	1105.9	1026.5
38.36	11.06	5.55	1106.4	1026.3
38.37	11.05	5.54	1105.7	1026.5
38.38	11.05	5.54	1105.8	1026.4
38.39	11.06	5.54	1106.0	1026.3
38.4	11.07	5.55	1105.8	1026.0
38.41	11.06	5.55	1106.0	1026.1
38.42	11.07	5.55	1105.6	1026.4
38.43	11.06	5.55	1105.7	1026.3
38.44	11.06	5.55	1105.8	1026.2
38.45	11.06	5.54	1105.9	1026.3
38.46	11.08	5.55	1105.8	1026.2
38.47	11.07	5.55	1105.5	1026.3
38.48	11.07	5.55	1105.9	1026.2
38.49	11.05	5.54	1105.9	1026.2
38.5	11.05	5.54	1105.5	1026.3
38.51	11.06	5.55	1105.6	1026.0
38.52	11.07	5.55	1105.6	1026.3
38.53	11.07	5.55	1105.7	1026.0
38.54	11.05	5.54	1105.2	1026.1
38.55	11.04	5.54	1105.2	1026.2
38.56	11.06	5.54	1105.7	1026.0
38.57	11.05	5.54	1105.8	1026.1
38.58	11.06	5.54	1105.1	1026.2
38.59	11.05	5.54	1105.3	1026.0
38.6	11.06	5.54	1105.3	1026.0
38.61	11.06	5.55	1105.5	1025.9
38.62	11.07	5.54	1105.4	1025.9
38.63	11.05	5.54	1105.8	1026.1
38.64	11.07	5.54	1105.3	1026.0
38.65	11.07	5.55	1105.5	1025.8
38.66	11.07	5.54	1105.2	1025.9
38.67	11.05	5.54	1105.3	1025.5
38.68	11.06	5.54	1105.1	1025.7
38.69	11.06	5.55	1104.9	1025.6
38.7	11.06	5.54	1104.7	1025.6
38.71	11.06	5.54	1105.0	1025.8
38.72	11.05	5.54	1104.9	1025.8
38.73	11.06	5.54	1104.7	1025.8
38.74	11.06	5.54	1104.6	1025.9
38.75	11.05	5.54	1105.0	1025.7
38.76	11.07	5.54	1104.7	1025.8
38.77	11.08	5.55	1104.6	1025.9
38.78	11.06	5.54	1104.6	1025.7
38.79	11.07	5.54	1104.6	1025.7
38.8	11.06	5.54	1104.7	1025.4
38.81	11.06	5.54	1104.7	1025.5
38.82	11.07	5.54	1104.4	1025.7
38.83	11.07	5.54	1104.7	1025.5
38.84	11.06	5.54	1104.4	1025.6
38.85	11.05	5.54	1104.3	1025.5
38.86	11.05	5.53	1104.2	1025.4
38.87	11.07	5.54	1104.4	1025.5
38.88	11.07	5.54	1104.6	1025.4
38.89	11.07	5.54	1103.8	1025.4
38.9	11.05	5.54	1104.1	1025.3
38.91	11.06	5.53	1104.6	1025.4
38.92	11.06	5.54	1104.3	1025.2
38.93	11.06	5.54	1104.4	1025.6
38.94	11.06	5.54	1104.0	1025.2
38.95	11.08	5.54	1104.2	1025.4
38.96	11.05	5.54	1103.8	1025.4
38.97	11.07	5.54	1103.8	1025.6
38.98	11.05	5.54	1103.8	1025.5
38.99	11.05	5.53	1104.1	1025.1
39.0	11.06	5.54	1104.0	1025.4
39.01	11.05	5.54	1103.9	1025.2
39.02	11.05	5.54	1104.5	1025.3
39.03	11.06	5.54	1104.4	1025.3
39.04	11.05	5.53	1104.0	1025.1
39.05	11.06	5.54	1104.0	1025.2
39.06	11.05	5.54	1104.9	1025.2
39.07	11.06	5.53	1104.1	1025.1
39.08	11.06	5.54	1103.5	1025.1
39.09	11.06	5.54	1103.7	1025.2
39.1	11.05	5.53	1103.6	1025.1
39.11	11.06	5.53	1103.6	1025.2
39.12	11.06	5.54	1103.5	1025.0
39.13	11.06	5.54	1103.4	1025.2
39.14	11.05	5.53	1103.2	1025.2
39.15	11.07	5.54	1103.6	1025.1
39.16	11.07	5.54	1103.7	1025.1
39.17	11.07	5.54	1103.6	1025.1
39.18	11.07	5.54	1103.8	1025.1
39.19	11.06	5.53	1103.5	1024.9
39.2	11.07	5.54	1103.5	1025.0
39.21	11.05	5.53	1103.1	1024.8
39.22	11.06	5.53	1103.1	1025.0
39.23	11.06	5.54	1102.9	1024.8
39.24	11.07	5.53	1103.0	1024.8
39.25	11.05	5.53	1102.9	1024.8
39.26	11.05	5.53	1103.3	1024.8
39.27	11.06	5.53	1103.1	1025.0
39.28	11.06	5.54	1103.3	1025.0
39.29	11.06	5.53	1102.9	1025.0
39.3	11.08	5.54	1102.8	1024.9
39.31	11.06	5.54	1102.9	1024.8
39.32	11.06	5.53	1103.2	1024.8
39.33	11.05	5.53	1103.0	1024.9
39.34	11.07	5.54	1102.6	1024.9
39.35	11.05	5.53	1102.8	1024.7
39.36	11.06	5.53	1102.9	1024.7
39.37	11.05	5.53	1102.6	1024.7
39.38	11.05	5.53	1102.9	1024.9
39.39	11.06	5.53	1102.7	1024.6
39.4	11.06	5.53	1103.2	1024.6
39.41	11.06	5.53	1102.6	1024.6
39.42	11.07	5.54	1102.7	1024.7
39.43	11.07	5.54	1102.6	1024.4
39.44	11.07	5.53	1102.6	1024.6
39.45	11.06	5.53	1102.5	1024.6
39.46	11.06	5.53	1102.8	1024.7
39.47	11.07	5.54	1102.5	1024.6
39.48	11.06	5.53	1102.4	1024.5
39.49	11.06	5.53	1102.7	1024.5
39.5	11.04	5.53	1102.6	1024.3
39.51	11.06	5.53	1102.7	1024.5
39.52	11.06	5.53	1102.1	1024.8
39.53	11.06	5.53	1102.4	1024.4
39.54	11.05	5.53	1102.5	1024.4
39.55	11.06	5.53	1102.6	1024.2
39.56	11.05	5.53	1102.0	1024.4
39.57	11.06	5.53	1102.3	1024.4
39.58	11.08	5.54	1102.6	1024.6
39.59	11.05	5.53	1102.2	1024.4
39.6	11.05	5.53	1102.2	1024.3
39.61	11.07	5.53	1102.2	1024.3
39.62	11.07	5.53	1102.2	1024.2
39.63	11.06	5.53	1101.9	1024.4
39.64	11.05	5.52	1101.8	1024.6
39.65	11.05	5.52	1102.4	1024.3
39.66	11.05	5.53	1101.9	1024.4
39.67	11.07	5.53	1101.9	1024.3
39.68	11.06	5.53	1101.6	1024.3
39.69	11.07	5.53	1102.0	1024.4
39.7	11.06	5.53	1101.9	1024.3
39.71	11.07	5.53	1102.2	1024.3
39.72	11.08	5.53	1101.4	1024.4
39.73	11.06	5.53	1101.9	1024.2
39.74	11.05	5.53	1101.7	1024.3
39.75	11.06	5.53	1101.6	1024.3
39.76	11.06	5.53	1101.5	1024.3
39.77	11.06	5.53	1101.9	1024.1
39.78	11.05	5.52	1101.7	1024.2
39.79	11.05	5.52	1102.2	1024.2
39.8	11.06	5.52	1101.4	1024.3
39.81	11.06	5.53	1101.6	1024.0
39.82	11.06	5.53	1101.6	1024.1
39.83	11.07	5.53	1101.8	1024.0
39.84	11.06	5.53	1101.4	1024.4
39.85	11.05	5.52	1101.5	1024.1
39.86	11.06	5.52	1101.3	1024.2
39.87	11.07	5.53	1101.3	1023.9
39.88	11.07	5.53	1101.2	1024.2
39.89	11.06	5.52	1101.7	1023.9
39.9	11.07	5.53	1101.3	1024.0
39.91	11.05	5.53	1101.1	1024.0
39.92	11.06	5.53	1101.2	1024.1
39.93	11.07	5.53	1101.5	1024.0
39.94	11.07	5.52	1101.5	1023.9
39.95	11.07	5.53	1101.1	1024.1
39.96	11.07	5.53	1101.1	1024.1
39.97	11.06	5.53	1101.1	1024.2
39.98	11.06	5.53	1101.2	1023.9
39.99	11.06	5.53	1101.1	1024.2
40.0	11.06	5.52	1100.6	1023.9
40.01	11.06	5.53	1101.1	1024.0
40.02	11.06	5.52	1101.1	1024.0
40.03	11.06	5.53	1101.1	1023.9
40.04	11.06	5.53	1101.1	1024.0
40.05	11.05	5.52	1101.0	1024.0
40.06	11.06	5.53	1101.5	1024.1
40.07	11.05	5.52	1101.1	1023.8
40.08	11.06	5.52	1101.0	1023.8
40.09	11.06	5.53	1100.6	1023.8
40.1	11.06	5.52	1100.4	1024.0
40.11	11.05	5.52	1101.2	1024.0
40.12	11.06	5.52	1100.5	1023.9
40.13	11.06	5.52	1101.2	1023.9
40.14	11.06	5.52	1100.9	1023.9
40.15	11.06	5.52	1101.0	1023.8
40.16	11.07	5.53	1100.2	1023.7
40.17	11.06	5.52	1100.4	1023.6
40.18	11.06	5.52	1100.4	1024.0
40.19	11.07	5.52	1100.9	1023.9
40.2	11.06	5.52	1100.1	1024.0
40.21	11.05	5.52	1100.6	1023.7
40.22	11.06	5.52	1100.9	1023.5
40.23	11.05	5.52	1100.2	1023.7
40.24	11.06	5.52	1100.1	1023.8
40.25	11.06	5.52	1100.1	1023.6
40.26	11.06	5.52	1099.9	1023.7
40.27	11.06	5.52	1100.4	1023.8
40.28	11.05	5.52	1099.7	1023.5
40.29	11.06	5.52	1100.4	1023.7
40.3	11.06	5.52	1099.9	1023.4
40.31	11.04	5.51	1099.6	1023.7
40.32	11.05	5.52	1100.4	1023.5
40.33	11.07	5.53	1100.7	1023.6
40.34	11.04	5.52	1100.3	1023.6
40.35	11.06	5.52	1100.3	1023.3
40.36	11.05	5.52	1099.7	1023.6
40.37	11.06	5.52	1099.9	1023.4
40.38	11.05	5.52	1099.8	1023.4
40.39	11.06	5.52	1099.4	1023.5
40.4	11.07	5.52	1099.6	1023.5
40.41	11.06	5.52	1100.1	1023.3
40.42	11.05	5.52	1099.4	1023.5
40.43	11.07	5.52	1099.0	1023.5
40.44	11.07	5.52	1099.2	1023.3
40.45	11.07	5.52	1099.4	1023.5
40.46	11.06	5.52	1099.5	1023.3
40.47	11.07	5.52	1099.5	1023.3
40.48	11.07	5.52	1099.3	1023.2
40.49	11.06	5.52	1099.4	1023.2
40.5	11.06	5.52	1099.2	1023.5
40.51	11.07	5.52	1099.4	1023.3
40.52	11.06	5.52	1099.5	1023.6
40.53	11.07	5.52	1099.1	1023.6
40.54	11.06	5.52	1099.1	1023.5
40.55	11.06	5.52	1099.1	1023.4
40.56	11.06	5.52	1099.1	1023.4
40.57	11.05	5.52	1099.0	1023.4
40.58	11.07	5.52	1099.0	1023.3
40.59	11.06	5.52	1099.3	1023.1
40.6	11.05	5.51	1099.2	1023.2
40.61	11.05	5.51	1099.4	1023.1
40.62	11.06	5.51	1099.1	1023.4
40.63	11.07	5.52	1098.6	1023.2
40.64	11.07	5.52	1098.6	1023.0
40.65	11.06	5.52	1099.0	1023.2
40.66	11.06	5.52	1098.0	1023.2
40.67	11.06	5.52	1098.4	1023.1
40.68	11.07	5.52	1099.1	1023.1
40.69	11.05	5.51	1098.5	1023.1
40.7	11.06	5.52	1098.4	1023.3
40.71	11.05	5.51	1098.9	1022.9
40.72	11.06	5.51	1099.0	1023.3
40.73	11.05	5.51	1098.8	1022.9
40.74	11.06	5.51	1098.8	1023.1
40.75	11.05	5.52	1098.6	1023.1
40.76	11.07	5.52	1098.5	1023.2
40.77	11.07	5.52	1098.6	1023.2
40.78	11.05	5.51	1098.0	1023.0
40.79	11.06	5.52	1098.6	1022.9
40.8	11.06	5.51	1098.5	1023.1
40.81	11.06	5.52	1098.4	1023.0
40.82	11.07	5.52	1098.2	1023.1
40.83	11.05	5.51	1098.0	1022.9
40.84	11.06	5.51	1098.5	1022.9
40.85	11.05	5.51	1098.4	1022.5
40.86	11.05	5.51	1097.7	1022.4
40.87	11.07	5.52	1098.0	1022.6
40.88	11.05	5.51	1098.5	1022.6
40.89	11.06	5.52	1098.0	1022.5
40.9	11.07	5.52	1098.3	1022.6
40.91	11.05	5.51	1098.1	1022.6
40.92	11.05	5.51	1098.5	1022.8
40.93	11.06	5.51	1098.4	1022.4
40.94	11.07	5.52	1098.6	1022.6
40.95	11.06	5.51	1098.0	1022.6
40.96	11.06	5.51	1098.4	1022.5
40.97	11.06	5.51	1098.2	1022.6
40.98	11.06	5.51	1097.6	1022.5
40.99	11.06	5.51	1097.9	1022.4
41.0	11.06	5.51	1098.0	1022.6
41.01	11.08	5.52	1097.7	1022.5
41.02	11.08	5.52	1097.6	1022.5
41.03	11.06	5.51	1097.4	1022.3
41.04	11.07	5.52	1098.0	1022.2
41.05	11.07	5.52	1097.3	1022.3
41.06	11.06	5.51	1097.4	1022.3
41.07	11.07	5.51	1097.7	1022.4
41.08	11.05	5.51	1097.6	1022.3
41.09	11.06	5.51	1097.9	1022.5
41.1	11.06	5.51	1098.0	1022.3
41.11	11.05	5.51	1097.7	1022.4
41.12	11.04	5.51	1097.6	1022.5
41.13	11.06	5.51	1097.4	1022.4
41.14	11.06	5.51	1097.4	1022.2
41.15	11.07	5.51	1097.5	1022.3
41.16	11.06	5.51	1097.4	1022.3
41.17	11.07	5.51	1097.8	1022.4
41.18	11.06	5.51	1098.0	1022.2
41.19	11.06	5.51	1097.2	1022.2
41.2	11.07	5.51	1097.2	1022.2
41.21	11.04	5.5	1097.3	1022.2
41.22	11.07	5.51	1097.2	1022.4
41.23	11.06	5.51	1097.4	1022.4
41.24	11.05	5.5	1097.1	1022.2
41.25	11.07	5.51	1097.4	1022.2
41.26	11.06	5.51	1097.2	1022.1
41.27	11.06	5.51	1097.4	1022.1
41.28	11.07	5.51	1097.4	1022.3
41.29	11.07	5.51	1097.4	1022.2
41.3	11.07	5.51	1096.8	1022.4
41.31	11.06	5.51	1097.0	1022.3
41.32	11.06	5.51	1097.0	1022.1
41.33	11.07	5.51	1097.2	1022.1
41.34	11.06	5.51	1096.8	1022.4
41.35	11.06	5.51	1097.1	1022.3
41.36	11.05	5.51	1096.9	1022.0
41.37	11.06	5.51	1096.5	1022.1
41.38	11.07	5.51	1097.1	1022.3
41.39	11.06	5.51	1097.0	1022.0
41.4	11.07	5.51	1096.4	1022.4
41.41	11.06	5.51	1096.4	1022.0
41.42	11.05	5.5	1096.6	1022.4
41.43	11.06	5.51	1097.1	1022.1
41.44	11.06	5.51	1096.2	1022.1
41.45	11.05	5.5	1096.3	1022.0
41.46	11.07	5.51	1096.2	1021.9
41.47	11.05	5.5	1096.6	1021.8
41.48	11.06	5.51	1096.6	1022.1
41.49	11.06	5.51	1096.6	1022.0
41.5	11.06	5.51	1096.2	1022.0
41.51	11.06	5.51	1096.3	1021.8
41.52	11.06	5.51	1096.4	1021.7
41.53	11.06	5.51	1096.3	1021.9
41.54	11.07	5.51	1096.1	1021.7
41.55	11.05	5.5	1096.7	1021.8
41.56	11.06	5.51	1095.9	1021.8
41.57	11.05	5.51	1096.2	1021.7
41.58	11.07	5.51	1095.8	1021.6
41.59	11.06	5.51	1096.5	1021.6
41.6	11.06	5.51	1095.9	1021.8
41.61	11.06	5.51	1095.2	1021.8
41.62	11.06	5.5	1096.0	1021.7
41.63	11.06	5.51	1096.4	1021.8
41.64	11.06	5.5	1095.8	1021.7
41.65	11.05	5.5	1095.9	1021.6
41.66	11.05	5.5	1095.9	1021.7
41.67	11.06	5.5	1096.1	1021.9
41.68	11.06	5.51	1096.2	1021.6
41.69	11.07	5.51	1095.9	1021.6
41.7	11.06	5.5	1096.0	1021.5
41.71	11.07	5.51	1095.8	1021.5
41.72	11.04	5.5	1095.8	1021.4
41.73	11.06	5.5	1095.6	1021.4
41.74	11.06	5.51	1095.5	1021.8
41.75	11.05	5.5	1095.6	1021.3
41.76	11.05	5.5	1095.6	1021.5
41.77	11.06	5.5	1095.4	1021.6
41.78	11.05	5.5	1095.6	1021.3
41.79	11.07	5.51	1095.6	1021.4
41.8	11.06	5.5	1095.3	1021.3
41.81	11.08	5.51	1095.0	1021.4
41.82	11.06	5.5	1095.4	1021.3
41.83	11.07	5.5	1095.0	1021.5
41.84	11.06	5.5	1095.5	1021.4
41.85	11.07	5.5	1095.1	1021.3
41.86	11.06	5.5	1095.7	1021.5
41.87	11.05	5.5	1095.3	1021.1
41.88	11.06	5.5	1094.7	1021.4
41.89	11.06	5.5	1094.6	1021.4
41.9	11.06	5.5	1095.2	1021.2
41.91	11.06	5.5	1094.9	1021.1
41.92	11.06	5.51	1095.3	1021.3
41.93	11.05	5.5	1094.3	1021.0
41.94	11.06	5.5	1095.0	1021.1
41.95	11.06	5.5	1094.6	1021.1
41.96	11.05	5.5	1094.9	1021.2
41.97	11.05	5.5	1095.0	1020.9
41.98	11.06	5.5	1095.2	1021.0
41.99	11.05	5.5	1094.7	1021.0
42.0	11.06	5.5	1093.8	1021.1
42.01	11.06	5.5	1094.6	1021.0
42.02	11.05	5.5	1095.1	1021.1
42.03	11.06	5.5	1094.5	1020.9
42.04	11.06	5.5	1094.4	1021.1
42.05	11.06	5.5	1094.4	1021.0
42.06	11.06	5.5	1094.8	1021.2
42.07	11.05	5.5	1094.3	1020.8
42.08	11.06	5.5	1093.9	1021.1
42.09	11.07	5.5	1094.1	1020.8
42.1	11.06	5.5	1094.2	1020.8
42.11	11.07	5.51	1094.3	1020.7
42.12	11.06	5.5	1094.4	1020.8
42.13	11.05	5.5	1093.6	1020.8
42.14	11.06	5.5	1094.7	1020.8
42.15	11.04	5.5	1094.0	1020.8
42.16	11.07	5.5	1093.5	1020.8
42.17	11.06	5.5	1093.6	1021.0
42.18	11.06	5.5	1094.0	1020.7
42.19	11.07	5.5	1094.0	1020.8
42.2	11.06	5.5	1093.9	1020.8
42.21	11.06	5.5	1094.0	1020.6
42.22	11.06	5.5	1094.3	1021.0
42.23	11.06	5.5	1093.9	1020.7
42.24	11.06	5.5	1094.0	1020.8
42.25	11.06	5.5	1093.5	1020.8
42.26	11.06	5.5	1094.0	1020.8
42.27	11.06	5.5	1093.6	1020.7
42.28	11.07	5.5	1093.3	1020.8
42.29	11.05	5.5	1094.3	1020.8
42.3	11.06	5.5	1094.2	1020.7
42.31	11.07	5.5	1093.9	1020.5
42.32	11.06	5.5	1093.8	1020.5
42.33	11.06	5.5	1093.4	1020.6
42.34	11.07	5.5	1093.5	1020.4
42.35	11.07	5.5	1093.2	1020.5
42.36	11.06	5.5	1093.1	1020.5
42.37	11.07	5.5	1092.8	1020.5
42.38	11.06	5.5	1093.2	1020.5
42.39	11.05	5.49	1093.0	1020.6
42.4	11.06	5.5	1093.5	1020.5
42.41	11.06	5.5	1093.2	1020.5
42.42	11.05	5.49	1093.0	1020.7
42.43	11.06	5.49	1093.3	1020.5
42.44	11.06	5.5	1092.9	1020.8
42.45	11.06	5.5	1093.3	1020.6
42.46	11.06	5.5	1093.2	1020.4
42.47	11.07	5.5	1093.0	1020.4
42.48	11.06	5.5	1093.1	1020.6
42.49	11.08	5.5	1093.2	1020.5
42.5	11.05	5.5	1093.0	1020.4
42.51	11.06	5.49	1093.3	1020.2
42.52	11.07	5.5	1092.7	1020.4
42.53	11.07	5.5	1093.2	1020.3
42.54	11.06	5.49	1093.4	1020.5
42.55	11.06	5.49	1092.8	1020.1
42.56	11.05	5.49	1092.7	1020.3
42.57	11.07	5.5	1093.0	1020.2
42.58	11.07	5.5	1093.0	1020.0
42.59	11.07	5.5	1092.9	1020.2
42.6	11.06	5.5	1092.9	1020.2
42.61	11.05	5.49	1092.9	1020.1
42.62	11.06	5.5	1092.4	1020.0
42.63	11.06	5.49	1092.8	1019.9
42.64	11.05	5.49	1092.8	1020.0
42.65	11.06	5.49	1092.4	1020.0
42.66	11.05	5.49	1092.4	1020.0
42.67	11.06	5.49	1092.4	1020.1
42.68	11.06	5.49	1092.4	1020.2
42.69	11.06	5.49	1092.7	1019.6
42.7	11.06	5.49	1092.8	1019.9
42.71	11.06	5.49	1092.7	1019.8
42.72	11.06	5.5	1092.7	1020.0
42.73	11.05	5.49	1092.9	1019.8
42.74	11.06	5.49	1092.7	1019.8
42.75	11.07	5.5	1092.3	1019.9
42.76	11.07	5.49	1092.6	1019.6
42.77	11.06	5.49	1092.8	1019.6
42.78	11.07	5.49	1093.1	1019.6
42.79	11.06	5.49	1092.6	1019.8
42.8	11.05	5.49	1092.2	1019.8
42.81	11.05	5.49	1092.7	1019.9
42.82	11.06	5.49	1092.2	1019.6
42.83	11.06	5.5	1092.4	1019.8
42.84	11.07	5.5	1092.6	1020.1
42.85	11.07	5.5	1092.4	1019.8
42.86	11.07	5.5	1092.7	1019.6
42.87	11.05	5.49	1092.3	1019.7
42.88	11.07	5.5	1092.7	1019.5
42.89	11.07	5.5	1092.2	1019.6
42.9	11.06	5.49	1092.5	1019.7
42.91	11.06	5.49	1092.7	1019.7
42.92	11.07	5.49	1092.4	1019.9
42.93	11.06	5.49	1092.4	1019.7
42.94	11.06	5.49	1092.4	1019.7
42.95	11.06	5.49	1092.1	1019.7
42.96	11.07	5.49	1092.4	1019.7
42.97	11.06	5.49	1092.1	1019.8
42.98	11.07	5.49	1092.0	1019.8
42.99	11.07	5.5	1091.8	1019.7
43.0	11.06	5.49	1092.0	1019.7
43.01	11.08	5.49	1092.0	1019.5
43.02	11.07	5.49	1092.7	1019.7
43.03	11.07	5.49	1091.8	1019.5
43.04	11.06	5.49	1091.8	1019.4
43.05	11.05	5.48	1091.7	1019.3
43.06	11.06	5.49	1091.6	1019.5
43.07	11.07	5.49	1091.0	1019.3
43.08	11.06	5.49	1091.4	1019.4
43.09	11.05	5.49	1091.0	1019.2
43.1	11.05	5.49	1091.4	1019.5
43.11	11.05	5.49	1090.9	1019.3
43.12	11.06	5.49	1091.8	1019.5
43.13	11.06	5.49	1091.7	1019.4
43.14	11.06	5.49	1091.6	1019.3
43.15	11.06	5.49	1091.1	1019.4
43.16	11.05	5.48	1091.2	1019.5
43.17	11.07	5.49	1091.2	1019.3
43.18	11.05	5.49	1090.9	1019.4
43.19	11.06	5.49	1091.4	1019.6
43.2	11.06	5.49	1091.2	1019.2
43.21	11.07	5.49	1091.5	1019.3
43.22	11.05	5.49	1091.0	1019.5
43.23	11.06	5.49	1090.8	1019.4
43.24	11.06	5.49	1091.5	1019.4
43.25	11.06	5.48	1091.1	1019.2
43.26	11.06	5.49	1090.8	1019.3
43.27	11.07	5.49	1091.6	1019.3
43.28	11.05	5.49	1091.1	1019.2
43.29	11.05	5.48	1091.2	1019.1
43.3	11.06	5.49	1090.8	1019.2
43.31	11.06	5.49	1090.7	1019.0
43.32	11.07	5.49	1091.0	1019.3
43.33	11.05	5.49	1090.6	1019.0
43.34	11.05	5.48	1090.4	1019.2
43.35	11.08	5.49	1091.1	1019.2
43.36	11.06	5.48	1090.4	1019.2
43.37	11.05	5.48	1090.3	1019.1
43.38	11.06	5.49	1090.3	1019.3
43.39	11.05	5.48	1090.6	1019.0
43.4	11.06	5.49	1090.2	1019.2
43.41	11.06	5.49	1090.5	1019.1
43.42	11.06	5.49	1090.2	1019.1
43.43	11.06	5.49	1090.6	1018.9
43.44	11.06	5.48	1090.8	1018.7
43.45	11.06	5.49	1090.9	1018.8
43.46	11.07	5.49	1090.9	1018.8
43.47	11.06	5.49	1090.6	1018.7
43.48	11.06	5.49	1090.2	1018.9
43.49	11.06	5.49	1090.3	1018.8
43.5	11.07	5.49	1090.2	1018.9
43.51	11.05	5.49	1090.7	1018.9
43.52	11.05	5.48	1090.1	1018.9
43.53	11.05	5.49	1090.3	1019.0
43.54	11.06	5.49	1090.0	1018.8
43.55	11.06	5.48	1090.3	1018.8
43.56	11.07	5.49	1090.3	1018.9
43.57	11.06	5.49	1090.2	1018.8
43.58	11.06	5.48	1090.0	1018.7
43.59	11.05	5.49	1089.9	1018.6
43.6	11.06	5.48	1090.2	1018.7
43.61	11.05	5.48	1090.2	1018.5
43.62	11.06	5.48	1090.0	1018.7
43.63	11.05	5.49	1090.2	1018.4
43.64	11.07	5.49	1089.8	1018.7
43.65	11.06	5.48	1090.1	1018.6
43.66	11.06	5.48	1090.0	1018.7
43.67	11.06	5.48	1089.8	1018.6
43.68	11.06	5.48	1090.1	1018.3
43.69	11.06	5.48	1089.5	1018.6
43.7	11.07	5.49	1090.1	1018.7
43.71	11.06	5.49	1090.0	1018.6
43.72	11.06	5.48	1089.7	1018.4
43.73	11.06	5.48	1089.7	1018.4
43.74	11.06	5.48	1089.8	1018.6
43.75	11.07	5.49	1090.0	1018.5
43.76	11.07	5.49	1090.2	1018.7
43.77	11.05	5.48	1089.7	1018.5
43.78	11.06	5.48	1089.9	1018.7
43.79	11.06	5.48	1090.0	1018.3
43.8	11.06	5.48	1089.8	1018.6
43.81	11.06	5.48	1089.8	1018.5
43.82	11.07	5.49	1090.0	1018.6
43.83	11.05	5.48	1089.9	1018.7
43.84	11.06	5.48	1089.8	1018.5
43.85	11.06	5.48	1089.5	1018.6
43.86	11.05	5.48	1089.8	1018.6
43.87	11.06	5.48	1089.8	1018.3
43.88	11.06	5.49	1089.0	1018.6
43.89	11.07	5.49	1089.3	1018.4
43.9	11.05	5.48	1089.8	1018.3
43.91	11.05	5.48	1089.4	1018.4
43.92	11.07	5.49	1089.1	1018.5
43.93	11.06	5.48	1088.9	1018.1
43.94	11.05	5.48	1089.8	1018.6
43.95	11.06	5.48	1089.3	1018.2
43.96	11.04	5.48	1089.7	1018.5
43.97	11.06	5.48	1089.4	1018.4
43.98	11.06	5.48	1089.2	1018.1
43.99	11.07	5.48	1088.9	1018.0
44.0	11.07	5.49	1089.1	1018.2
44.01	11.06	5.48	1088.7	1017.9
44.02	11.06	5.48	1088.9	1018.4
44.03	11.06	5.48	1088.6	1018.0
44.04	11.07	5.48	1089.0	1018.1
44.05	11.06	5.48	1088.9	1018.1
44.06	11.05	5.48	1088.6	1018.1
44.07	11.07	5.48	1089.0	1017.9
44.08	11.06	5.48	1088.4	1018.0
44.09	11.06	5.48	1088.8	1018.2
44.1	11.07	5.48	1089.0	1017.9
44.11	11.06	5.48	1088.9	1018.0
44.12	11.07	5.48	1088.0	1017.8
44.13	11.06	5.48	1089.1	1017.8
44.14	11.05	5.48	1088.7	1018.0
44.15	11.05	5.48	1088.5	1017.9
44.16	11.07	5.48	1088.8	1018.0
44.17	11.06	5.48	1088.7	1017.9
44.18	11.07	5.48	1088.6	1018.0
44.19	11.06	5.48	1088.1	1018.2
44.2	11.06	5.48	1088.7	1018.0
44.21	11.06	5.48	1088.7	1018.0
44.22	11.07	5.48	1088.2	1018.0
44.23	11.06	5.48	1088.5	1017.8
44.24	11.06	5.48	1087.8	1018.1
44.25	11.05	5.48	1088.3	1017.9
44.26	11.06	5.48	1088.6	1017.8
44.27	11.06	5.48	1088.1	1017.8
44.28	11.06	5.48	1088.1	1017.9
44.29	11.05	5.48	1088.2	1017.7
44.3	11.06	5.48	1088.5	1017.8
44.31	11.05	5.48	1088.6	1017.9
44.32	11.06	5.48	1087.9	1017.8
44.33	11.06	5.48	1088.4	1017.8
44.34	11.06	5.48	1088.1	1017.9
44.35	11.06	5.48	1087.9	1017.6
44.36	11.06	5.48	1088.3	1017.8
44.37	11.06	5.48	1088.0	1017.8
44.38	11.06	5.48	1088.0	1017.8
44.39	11.06	5.48	1087.9	1017.7
44.4	11.06	5.48	1087.7	1017.5
44.41	11.06	5.48	1087.8	1017.8
44.42	11.06	5.48	1087.6	1017.9
44.43	11.06	5.48	1087.2	1017.7
44.44	11.07	5.48	1088.2	1017.7
44.45	11.05	5.47	1087.9	1017.8
44.46	11.06	5.48	1087.9	1017.7
44.47	11.07	5.48	1087.7	1017.8
44.48	11.07	5.48	1087.6	1017.7
44.49	11.07	5.48	1087.9	1017.5
44.5	11.07	5.48	1087.7	1017.6
44.51	11.06	5.48	1087.7	1017.4
44.52	11.06	5.48	1087.7	1017.6
44.53	11.06	5.48	1087.5	1017.5
44.54	11.05	5.47	1087.7	1017.3
44.55	11.06	5.48	1087.5	1017.4
44.56	11.06	5.48	1087.1	1017.5
44.57	11.06	5.48	1087.2	1017.3
44.58	11.06	5.48	1087.3	1017.5
44.59	11.07	5.48	1087.1	1017.4
44.6	11.06	5.48	1087.3	1017.4
44.61	11.06	5.47	1087.1	1017.3
44.62	11.06	5.48	1087.4	1017.6
44.63	11.06	5.48	1087.0	1017.3
44.64	11.04	5.47	1087.2	1017.4
44.65	11.05	5.47	1087.2	1017.2
44.66	11.05	5.48	1086.9	1017.4
44.67	11.06	5.48	1086.7	1017.4
44.68	11.06	5.48	1087.2	1017.2
44.69	11.06	5.48	1087.2	1017.2
44.7	11.06	5.48	1087.1	1017.2
44.71	11.06	5.48	1086.6	1017.2
44.72	11.06	5.48	1086.8	1017.2
44.73	11.07	5.48	1087.3	1017.2
44.74	11.06	5.48	1087.0	1017.4
44.75	11.07	5.48	1087.1	1017.1
44.76	11.06	5.47	1087.1	1017.2
44.77	11.06	5.47	1087.2	1017.2
44.78	11.06	5.47	1087.9	1017.2
44.79	11.06	5.47	1087.0	1017.1
44.8	11.06	5.47	1087.6	1017.1
44.81	11.05	5.47	1087.1	1017.1
44.82	11.07	5.47	1087.1	1017.2
44.83	11.05	5.47	1087.0	1017.1
44.84	11.07	5.48	1087.2	1017.3
44.85	11.06	5.47	1086.8	1017.2
44.86	11.06	5.47	1087.2	1017.1
44.87	11.05	5.47	1086.4	1017.2
44.88	11.06	5.47	1086.9	1017.1
44.89	11.07	5.48	1087.0	1017.1
44.9	11.06	5.47	1086.7	1017.2
44.91	11.05	5.47	1086.8	1017.0
44.92	11.05	5.47	1087.1	1017.0
44.93	11.07	5.48	1086.7	1017.0
44.94	11.06	5.47	1086.3	1017.1
44.95	11.06	5.47	1086.3	1016.8
44.96	11.06	5.48	1087.1	1017.0
44.97	11.05	5.47	1086.4	1017.2
44.98	11.06	5.48	1086.3	1017.1
44.99	11.06	5.47	1086.5	1017.0
45.0	11.07	5.48	1086.6	1017.0
45.01	11.06	5.48	1086.3	1016.8
45.02	11.05	5.47	1086.3	1017.2
45.03	11.06	5.48	1086.1	1016.9
45.04	11.06	5.47	1086.2	1016.8
45.05	11.06	5.47	1086.1	1017.0
45.06	11.06	5.47	1086.3	1017.0
45.07	11.06	5.47	1086.0	1016.8
45.08	11.06	5.47	1086.4	1016.9
45.09	11.06	5.47	1085.8	1016.8
45.1	11.06	5.47	1085.8	1016.8
45.11	11.06	5.47	1085.6	1016.9
45.12	11.07	5.47	1086.2	1016.8
45.13	11.05	5.47	1085.8	1016.9
45.14	11.06	5.47	1085.7	1016.8
45.15	11.06	5.47	1086.0	1017.0
45.16	11.07	5.47	1085.8	1017.0
45.17	11.06	5.47	1086.0	1016.8
45.18	11.06	5.47	1085.8	1016.9
45.19	11.07	5.47	1085.8	1016.6
45.2	11.06	5.47	1086.1	1016.8
45.21	11.06	5.47	1086.0	1016.6
45.22	11.06	5.47	1085.7	1016.6
45.23	11.06	5.47	1085.8	1016.6
45.24	11.06	5.47	1086.0	1016.6
45.25	11.06	5.47	1085.5	1016.6
45.26	11.06	5.48	1085.1	1016.6
45.27	11.07	5.47	1085.6	1016.7
45.28	11.07	5.47	1085.6	1016.5
45.29	11.06	5.47	1085.2	1016.5
45.3	11.06	5.47	1085.5	1016.5
45.31	11.06	5.47	1085.3	1016.5
45.32	11.05	5.47	1085.2	1016.5
45.33	11.07	5.47	1085.7	1016.5
45.34	11.06	5.47	1084.8	1016.6
45.35	11.07	5.47	1085.1	1016.4
45.36	11.06	5.47	1085.7	1016.5
45.37	11.07	5.47	1085.6	1016.4
45.38	11.05	5.47	1085.3	1016.4
45.39	11.06	5.47	1085.4	1016.4
45.4	11.06	5.47	1085.3	1016.4
45.41	11.05	5.47	1085.4	1016.2
45.42	11.06	5.47	1085.4	1016.6
45.43	11.05	5.47	1085.4	1016.3
45.44	11.06	5.47	1085.5	1016.4
45.45	11.05	5.47	1085.5	1016.4
45.46	11.05	5.47	1085.1	1016.3
45.47	11.06	5.47	1085.0	1016.3
45.48	11.05	5.47	1085.0	1016.3
45.49	11.06	5.47	1085.1	1016.2
45.5	11.06	5.47	1085.3	1016.2
45.51	11.05	5.47	1085.4	1016.4
45.52	11.07	5.47	1085.0	1016.3
45.53	11.06	5.47	1084.6	1016.4
45.54	11.05	5.47	1085.2	1016.3
45.55	11.06	5.47	1085.0	1016.2
45.56	11.06	5.47	1084.9	1016.3
45.57	11.06	5.47	1085.1	1016.1
45.58	11.06	5.47	1084.8	1016.3
45.59	11.05	5.47	1085.0	1016.1
45.6	11.06	5.47	1085.1	1016.2
45.61	11.05	5.46	1084.5	1016.0
45.62	11.07	5.47	1084.3	1016.3
45.63	11.06	5.47	1084.8	1016.1
45.64	11.06	5.47	1084.9	1016.4
45.65	11.06	5.47	1084.6	1016.3
45.66	11.06	5.47	1084.3	1016.3
45.67	11.04	5.46	1084.4	1016.0
45.68	11.06	5.47	1084.5	1016.2
45.69	11.06	5.47	1083.9	1016.0
45.7	11.06	5.47	1084.4	1016.0
45.71	11.05	5.47	1084.8	1016.0
45.72	11.05	5.46	1084.4	1016.0
45.73	11.06	5.47	1084.5	1015.9
45.74	11.06	5.47	1084.4	1016.0
45.75	11.06	5.47	1084.3	1016.1
45.76	11.07	5.47	1084.5	1016.0
45.77	11.05	5.46	1084.3	1016.0
45.78	11.07	5.47	1084.5	1016.0
45.79	11.05	5.47	1084.3	1016.2
45.8	11.07	5.47	1084.2	1015.9
45.81	11.05	5.47	1083.9	1016.0
45.82	11.06	5.47	1084.4	1016.2
45.83	11.07	5.47	1084.2	1015.9
45.84	11.07	5.47	1084.3	1016.2
45.85	11.06	5.47	1083.8	1015.7
45.86	11.06	5.47	1084.2	1015.7
45.87	11.06	5.47	1084.3	1015.7
45.88	11.05	5.46	1084.2	1015.6
45.89	11.07	5.47	1083.6	1015.8
45.9	11.06	5.47	1083.9	1015.9
45.91	11.06	5.47	1083.5	1015.5
45.92	11.06	5.47	1083.6	1015.9
45.93	11.06	5.47	1083.6	1015.9
45.94	11.07	5.47	1083.6	1016.1
45.95	11.06	5.47	1083.8	1016.0
45.96	11.06	5.47	1084.1	1016.1
45.97	11.06	5.47	1083.7	1015.9
45.98	11.06	5.46	1084.3	1016.0
45.99	11.07	5.47	1083.9	1015.8
46.0	11.06	5.46	1083.3	1015.8
46.01	11.07	5.47	1084.0	1015.5
46.02	11.05	5.46	1083.8	1015.9
46.03	11.06	5.46	1083.7	1015.9
46.04	11.06	5.47	1084.0	1015.7
46.05	11.06	5.47	1083.3	1015.9
46.06	11.05	5.46	1083.8	1015.9
46.07	11.07	5.47	1083.3	1015.8
46.08	11.04	5.46	1083.4	1015.6
46.09	11.07	5.47	1083.5	1015.6
46.1	11.05	5.46	1083.1	1015.7
46.11	11.06	5.46	1083.6	1015.8
46.12	11.05	5.46	1083.0	1015.7
46.13	11.06	5.47	1083.1	1015.6
46.14	11.07	5.47	1083.3	1015.6
46.15	11.05	5.46	1083.2	1015.7
46.16	11.06	5.46	1083.2	1015.8
46.17	11.05	5.46	1083.0	1015.8
46.18	11.06	5.47	1083.6	1015.8
46.19	11.05	5.46	1083.2	1015.7
46.2	11.06	5.46	1082.7	1015.9
46.21	11.04	5.46	1083.7	1015.8
46.22	11.06	5.46	1083.4	1015.8
46.23	11.06	5.47	1083.0	1015.6
46.24	11.06	5.47	1082.7	1015.8
46.25	11.06	5.47	1083.1	1015.4
46.26	11.05	5.46	1083.0	1015.8
46.27	11.06	5.47	1083.4	1015.5
46.28	11.05	5.46	1083.1	1015.5
46.29	11.06	5.46	1082.9	1015.5
46.3	11.07	5.46	1082.9	1015.7
46.31	11.06	5.46	1082.8	1015.1
46.32	11.06	5.46	1082.8	1015.4
46.33	11.07	5.47	1082.9	1015.2
46.34	11.06	5.46	1082.9	1015.4
46.35	11.06	5.47	1082.4	1015.4
46.36	11.06	5.46	1082.5	1015.6
46.37	11.06	5.46	1082.9	1015.3
46.38	11.07	5.46	1082.6	1015.2
46.39	11.06	5.46	1082.5	1015.2
46.4	11.07	5.46	1082.8	1015.1
46.41	11.06	5.47	1082.6	1015.2
46.42	11.06	5.46	1082.1	1015.1
46.43	11.07	5.47	1081.9	1015.3
46.44	11.06	5.46	1082.1	1015.2
46.45	11.05	5.46	1082.5	1015.1
46.46	11.06	5.47	1082.4	1015.2
46.47	11.05	5.46	1081.9	1015.3
46.48	11.06	5.46	1081.8	1015.1
46.49	11.05	5.46	1082.1	1015.1
46.5	11.06	5.46	1081.9	1015.1
46.51	11.05	5.46	1081.4	1014.8
46.52	11.06	5.46	1082.2	1014.9
46.53	11.05	5.46	1082.2	1014.8
46.54	11.05	5.46	1081.4	1015.0
46.55	11.06	5.46	1081.5	1014.8
46.56	11.06	5.46	1082.1	1015.0
46.57	11.06	5.46	1082.4	1014.9
46.58	11.07	5.46	1081.9	1015.0
46.59	11.05	5.46	1081.9	1014.8
46.6	11.06	5.46	1082.1	1014.8
46.61	11.06	5.46	1081.7	1015.0
46.62	11.05	5.46	1081.8	1015.0
46.63	11.07	5.46	1081.3	1015.0
46.64	11.06	5.46	1081.5	1014.9
46.65	11.07	5.46	1081.5	1015.0
46.66	11.07	5.47	1081.8	1014.8
46.67	11.06	5.46	1081.7	1015.0
46.68	11.05	5.46	1081.6	1014.8
46.69	11.07	5.47	1081.3	1014.8
46.7	11.07	5.46	1081.3	1015.0
46.71	11.06	5.46	1080.6	1014.9
46.72	11.06	5.46	1081.5	1014.9
46.73	11.06	5.46	1081.8	1015.0
46.74	11.05	5.46	1081.7	1015.0
46.75	11.07	5.46	1081.2	1015.0
46.76	11.06	5.46	1081.0	1014.9
46.77	11.08	5.46	1081.1	1014.8
46.78	11.05	5.46	1081.2	1014.9
46.79	11.07	5.46	1081.2	1014.9
46.8	11.05	5.46	1081.6	1014.8
46.81	11.07	5.46	1081.6	1014.7
46.82	11.07	5.46	1081.5	1014.6
46.83	11.06	5.46	1081.0	1014.6
46.84	11.06	5.46	1081.0	1014.9
46.85	11.05	5.46	1081.0	1014.6
46.86	11.05	5.46	1081.6	1014.6
46.87	11.06	5.46	1081.4	1014.5
46.88	11.05	5.46	1081.5	1014.6
46.89	11.06	5.46	1081.1	1014.6
46.9	11.06	5.46	1081.7	1014.4
46.91	11.06	5.46	1080.9	1014.6
46.92	11.06	5.46	1081.0	1014.6
46.93	11.06	5.46	1081.4	1014.6
46.94	11.05	5.46	1081.3	1014.6
46.95	11.07	5.46	1081.0	1014.5
46.96	11.06	5.46	1081.0	1014.6
46.97	11.05	5.46	1081.0	1014.2
46.98	11.05	5.46	1081.0	1014.7
46.99	11.06	5.46	1080.4	1014.2
47.0	11.07	5.46	1081.1	1014.5
47.01	11.06	5.46	1080.5	1014.3
47.02	11.05	5.46	1080.6	1014.8
47.03	11.06	5.46	1080.8	1014.2
47.04	11.07	5.46	1080.8	1014.6
47.05	11.06	5.46	1080.9	1014.4
47.06	11.07	5.46	1080.8	1014.5
47.07	11.06	5.46	1080.8	1014.1
47.08	11.06	5.45	1080.8	1014.4
47.09	11.05	5.45	1080.6	1014.3
47.1	11.07	5.46	1081.0	1014.4
47.11	11.06	5.46	1080.6	1014.1
47.12	11.07	5.46	1080.7	1014.4
47.13	11.06	5.46	1081.0	1014.4
47.14	11.06	5.46	1080.6	1014.2
47.15	11.06	5.46	1080.5	1014.4
47.16	11.08	5.46	1080.7	1014.4
47.17	11.05	5.46	1080.7	1014.4
47.18	11.06	5.45	1080.6	1014.4
47.19	11.06	5.46	1080.8	1014.4
47.2	11.06	5.46	1080.6	1014.3
47.21	11.05	5.46	1080.5	1014.1
47.22	11.05	5.45	1080.5	1014.2
47.23	11.05	5.46	1080.1	1014.2
47.24	11.06	5.46	1080.4	1014.3
47.25	11.06	5.46	1080.4	1014.1
47.26	11.06	5.46	1080.4	1014.0
47.27	11.06	5.45	1080.0	1014.2
47.28	11.06	5.46	1080.4	1014.6
47.29	11.06	5.46	1080.3	1014.3
47.3	11.06	5.46	1080.5	1014.1
47.31	11.06	5.45	1080.0	1014.1
47.32	11.05	5.45	1080.2	1014.4
47.33	11.06	5.45	1079.9	1014.1
47.34	11.07	5.46	1080.0	1014.3
47.35	11.07	5.46	1079.5	1014.0
47.36	11.07	5.46	1080.1	1014.1
47.37	11.06	5.46	1080.2	1014.1
47.38	11.05	5.45	1080.3	1014.2
47.39	11.06	5.46	1079.9	1014.2
47.4	11.05	5.45	1079.8	1014.2
47.41	11.06	5.45	1079.8	1014.2
47.42	11.06	5.46	1080.2	1014.0
47.43	11.07	5.46	1079.7	1014.2
47.44	11.06	5.46	1080.0	1013.9
47.45	11.06	5.46	1080.2	1013.9
47.46	11.06	5.46	1080.0	1014.1
47.47	11.06	5.45	1080.0	1014.0
47.48	11.05	5.46	1080.0	1014.0
47.49	11.06	5.46	1079.8	1013.9
47.5	11.05	5.45	1079.5	1014.0
47.51	11.05	5.45	1079.5	1013.9
47.52	11.07	5.46	1079.1	1014.2
47.53	11.06	5.45	1079.4	1013.9
47.54	11.06	5.45	1079.6	1014.2
47.55	11.07	5.46	1079.6	1014.0
47.56	11.05	5.45	1079.7	1013.9
47.57	11.06	5.46	1079.5	1014.1
47.58	11.07	5.46	1079.3	1013.8
47.59	11.06	5.45	1079.6	1014.0
47.6	11.05	5.45	1079.7	1014.0
47.61	11.06	5.45	1079.7	1014.0
47.62	11.07	5.46	1079.6	1014.0
47.63	11.06	5.46	1079.4	1014.0
47.64	11.06	5.46	1079.5	1014.1
47.65	11.06	5.45	1079.6	1014.0
47.66	11.06	5.46	1079.0	1014.0
47.67	11.06	5.45	1079.2	1013.6
47.68	11.06	5.45	1079.9	1013.8
47.69	11.06	5.45	1079.3	1013.6
47.7	11.06	5.45	1079.0	1013.7
47.71	11.05	5.45	1079.3	1013.8
47.72	11.05	5.45	1079.2	1013.7
47.73	11.06	5.46	1079.2	1013.5
47.74	11.05	5.45	1078.7	1013.7
47.75	11.06	5.45	1079.0	1013.4
47.76	11.06	5.45	1078.8	1013.4
47.77	11.06	5.45	1078.8	1013.6
47.78	11.06	5.45	1078.8	1013.8
47.79	11.05	5.45	1078.6	1013.6
47.8	11.07	5.46	1078.6	1013.6
47.81	11.05	5.45	1078.6	1013.4
47.82	11.07	5.46	1078.0	1013.8
47.83	11.06	5.46	1078.7	1013.5
47.84	11.06	5.45	1079.0	1013.5
47.85	11.05	5.45	1078.9	1013.6
47.86	11.06	5.45	1078.7	1013.9
47.87	11.06	5.45	1078.8	1013.5
47.88	11.06	5.45	1078.8	1013.5
47.89	11.05	5.45	1078.9	1013.4
47.9	11.06	5.45	1079.0	1013.5
47.91	11.07	5.46	1079.1	1013.5
47.92	11.06	5.45	1078.6	1013.5
47.93	11.06	5.45	1078.5	1013.5
47.94	11.06	5.45	1078.6	1013.4
47.95	11.04	5.44	1078.7	1013.5
47.96	11.05	5.45	1078.7	1013.4
47.97	11.05	5.45	1078.6	1013.3
47.98	11.06	5.45	1078.4	1013.5
47.99	11.06	5.45	1078.5	1013.5
48.0	11.06	5.45	1078.6	1013.4
48.01	11.07	5.46	1078.6	1013.5
48.02	11.06	5.45	1078.2	1013.5
48.03	11.06	5.45	1078.6	1013.5
48.04	11.06	5.45	1078.5	1013.5
48.05	11.06	5.45	1078.7	1013.3
48.06	11.06	5.45	1078.5	1013.3
48.07	11.05	5.45	1078.2	1013.2
48.08	11.05	5.45	1078.6	1013.3
48.09	11.07	5.45	1078.2	1013.2
48.1	11.06	5.45	1078.1	1013.2
48.11	11.06	5.45	1078.4	1013.3
48.12	11.06	5.45	1078.5	1013.3
48.13	11.06	5.45	1078.6	1013.2
48.14	11.06	5.45	1078.1	1013.1
48.15	11.06	5.45	1078.4	1013.2
48.16	11.05	5.45	1078.5	1013.4
48.17	11.07	5.45	1078.6	1013.1
48.18	11.06	5.45	1078.0	1013.3
48.19	11.07	5.45	1078.3	1013.2
48.2	11.05	5.45	1078.5	1013.3
48.21	11.07	5.45	1078.2	1013.2
48.22	11.06	5.45	1077.4	1013.3
48.23	11.05	5.45	1078.2	1013.0
48.24	11.06	5.45	1078.3	1013.2
48.25	11.06	5.45	1078.3	1013.0
48.26	11.05	5.45	1077.8	1013.1
48.27	11.07	5.45	1078.2	1013.0
48.28	11.05	5.45	1078.4	1013.2
48.29	11.06	5.45	1078.2	1012.7
48.3	11.06	5.45	1078.1	1013.3
48.31	11.06	5.45	1078.0	1013.2
48.32	11.05	5.45	1078.4	1013.1
48.33	11.07	5.45	1077.8	1012.8
48.34	11.06	5.45	1078.0	1013.0
48.35	11.05	5.45	1078.2	1013.0
48.36	11.06	5.45	1078.4	1013.2
48.37	11.06	5.45	1078.4	1013.0
48.38	11.07	5.45	1077.8	1013.2
48.39	11.06	5.45	1078.2	1013.1
48.4	11.07	5.45	1078.3	1013.1
48.41	11.05	5.45	1078.0	1012.9
48.42	11.06	5.45	1077.3	1012.9
48.43	11.06	5.45	1077.9	1013.1
48.44	11.06	5.45	1078.1	1013.2
48.45	11.07	5.45	1077.8	1012.9
48.46	11.05	5.45	1077.6	1013.1
48.47	11.06	5.45	1078.4	1012.9
48.48	11.06	5.45	1078.2	1013.1
48.49	11.05	5.45	1077.6	1013.0
48.5	11.07	5.45	1078.2	1013.1
48.51	11.05	5.45	1078.2	1013.0
48.52	11.07	5.45	1077.8	1012.9
48.53	11.07	5.45	1077.4	1013.0
48.54	11.05	5.45	1078.0	1012.9
48.55	11.07	5.45	1078.0	1012.9
48.56	11.06	5.45	1078.0	1013.0
48.57	11.06	5.45	1077.3	1012.7
48.58	11.07	5.45	1077.6	1012.9
48.59	11.05	5.44	1077.5	1012.8
48.6	11.06	5.45	1077.8	1012.9
48.61	11.06	5.45	1077.4	1013.0
48.62	11.07	5.45	1077.0	1013.0
48.63	11.08	5.46	1078.4	1012.7
48.64	11.05	5.45	1077.9	1012.8
48.65	11.06	5.45	1077.3	1012.8
48.66	11.06	5.45	1077.4	1012.7
48.67	11.06	5.45	1077.1	1012.9
48.68	11.06	5.45	1076.9	1012.8
48.69	11.06	5.45	1076.5	1012.6
48.7	11.06	5.45	1076.4	1012.7
48.71	11.07	5.45	1076.8	1012.5
48.72	11.05	5.44	1076.8	1013.0
48.73	11.06	5.45	1076.4	1012.4
48.74	11.05	5.45	1076.3	1012.7
48.75	11.05	5.45	1076.4	1012.6
48.76	11.05	5.45	1076.5	1012.7
48.77	11.05	5.45	1076.7	1012.5
48.78	11.06	5.45	1076.2	1012.6
48.79	11.06	5.45	1075.6	1012.6
48.8	11.06	5.45	1076.3	1012.7
48.81	11.06	5.45	1076.2	1012.5
48.82	11.07	5.45	1076.1	1012.8
48.83	11.06	5.45	1076.3	1012.6
48.84	11.05	5.45	1076.6	1012.7
48.85	11.06	5.45	1076.0	1012.8
48.86	11.06	5.45	1076.0	1012.8
48.87	11.07	5.45	1075.9	1012.6
48.88	11.05	5.45	1076.0	1012.6
48.89	11.06	5.45	1076.1	1012.4
48.9	11.05	5.44	1076.0	1012.6
48.91	11.07	5.45	1076.2	1012.5
48.92	11.06	5.45	1076.0	1012.7
48.93	11.06	5.44	1076.4	1012.4
48.94	11.06	5.45	1075.9	1012.7
48.95	11.07	5.45	1076.4	1012.4
48.96	11.06	5.45	1076.2	1012.8
48.97	11.06	5.45	1075.8	1012.4
48.98	11.06	5.45	1076.6	1012.3
48.99	11.07	5.45	1076.4	1012.4
49.0	11.05	5.44	1076.5	1012.4
49.01	11.06	5.45	1075.7	1012.5
49.02	11.07	5.45	1076.2	1012.5
49.03	11.06	5.45	1075.9	1012.3
49.04	11.07	5.45	1076.0	1012.3
49.05	11.05	5.44	1076.0	1012.4
49.06	11.06	5.45	1076.4	1012.2
49.07	11.06	5.44	1076.1	1012.4
49.08	11.05	5.44	1076.1	1012.2
49.09	11.05	5.44	1076.2	1012.1
49.1	11.07	5.45	1076.1	1012.4
49.11	11.06	5.45	1075.9	1012.4
49.12	11.07	5.45	1075.5	1012.4
49.13	11.05	5.44	1075.4	1012.4
49.14	11.06	5.44	1075.4	1012.3
49.15	11.06	5.45	1075.7	1012.1
49.16	11.05	5.44	1075.2	1012.4
49.17	11.05	5.45	1075.0	1012.4
49.18	11.08	5.45	1075.8	1012.4
49.19	11.05	5.45	1075.5	1012.0
49.2	11.07	5.45	1075.6	1012.4
49.21	11.06	5.45	1075.4	1012.2
49.22	11.07	5.45	1075.7	1012.0
49.23	11.06	5.45	1075.5	1012.1
49.24	11.05	5.44	1075.2	1012.1
49.25	11.05	5.44	1074.9	1011.9
49.26	11.06	5.44	1075.4	1012.2
49.27	11.05	5.44	1075.5	1012.2
49.28	11.07	5.45	1075.5	1012.0
49.29	11.05	5.44	1075.4	1012.2
49.3	11.07	5.45	1075.9	1011.9
49.31	11.06	5.44	1075.7	1012.1
49.32	11.06	5.44	1075.4	1012.0
49.33	11.06	5.44	1074.6	1012.0
49.34	11.07	5.44	1075.0	1012.1
49.35	11.06	5.45	1075.6	1012.1
49.36	11.07	5.44	1075.0	1012.3
49.37	11.05	5.44	1075.3	1012.1
49.38	11.07	5.45	1075.3	1012.2
49.39	11.07	5.44	1075.3	1012.0
49.4	11.05	5.44	1075.0	1012.3
49.41	11.05	5.44	1074.7	1012.2
49.42	11.06	5.44	1075.6	1012.2
49.43	11.06	5.44	1075.2	1011.8
49.44	11.06	5.44	1075.2	1012.0
49.45	11.07	5.45	1075.4	1011.9
49.46	11.06	5.45	1075.4	1011.9
49.47	11.05	5.44	1075.0	1011.9
49.48	11.06	5.44	1074.4	1012.0
49.49	11.06	5.44	1074.7	1012.1
49.5	11.05	5.44	1075.5	1012.0
49.51	11.06	5.44	1075.1	1012.0
49.52	11.05	5.44	1074.2	1011.8
49.53	11.07	5.44	1074.7	1011.9
49.54	11.06	5.45	1075.3	1012.0
49.55	11.06	5.44	1074.8	1012.1
49.56	11.06	5.45	1074.6	1012.0
49.57	11.05	5.44	1075.1	1012.0
49.58	11.06	5.44	1075.2	1012.1
49.59	11.07	5.45	1074.6	1012.3
49.6	11.05	5.44	1074.2	1011.9
49.61	11.06	5.44	1074.3	1011.9
49.62	11.06	5.44	1074.3	1012.2
49.63	11.05	5.44	1074.4	1012.1
49.64	11.07	5.45	1074.0	1012.0
49.65	11.06	5.44	1074.5	1012.0
49.66	11.06	5.44	1075.0	1011.9
49.67	11.06	5.44	1074.2	1012.0
49.68	11.06	5.44	1074.2	1012.1
49.69	11.06	5.44	1073.9	1011.8
49.7	11.06	5.44	1074.5	1012.0
49.71	11.06	5.44	1074.4	1011.9
49.72	11.07	5.45	1074.7	1011.9
49.73	11.06	5.44	1074.4	1011.9
49.74	11.07	5.44	1074.4	1012.0
49.75	11.06	5.44	1074.4	1011.9
49.76	11.06	5.44	1074.2	1011.9
49.77	11.06	5.44	1074.6	1011.8
49.78	11.06	5.44	1074.6	1012.0
49.79	11.06	5.44	1074.1	1011.9
49.8	11.07	5.45	1073.8	1011.8
49.81	11.05	5.44	1074.2	1011.8
49.82	11.07	5.44	1074.2	1011.9
49.83	11.05	5.44	1074.2	1011.9
49.84	11.06	5.44	1073.8	1011.7
49.85	11.05	5.44	1074.0	1011.9
49.86	11.06	5.44	1073.3	1011.9
49.87	11.06	5.44	1073.7	1011.6
49.88	11.07	5.44	1073.8	1011.9
49.89	11.05	5.44	1074.2	1011.9
49.9	11.07	5.44	1073.8	1011.8
49.91	11.05	5.44	1073.2	1011.8
49.92	11.07	5.44	1073.2	1011.7
49.93	11.04	5.44	1073.8	1011.9
49.94	11.06	5.44	1073.8	1011.9
49.95	11.06	5.44	1073.4	1011.7
49.96	11.07	5.44	1073.4	1011.8
49.97	11.06	5.44	1073.7	1011.5
49.98	11.06	5.44	1073.5	1011.6
49.99	11.05	5.44	1072.9	1011.7
50.0	11.06	5.44	1073.1	1011.8
50.01	11.05	5.44	1073.5	1011.8
50.02	11.06	5.44	1073.4	1011.5
50.03	11.06	5.44	1073.3	1011.7
50.04	11.06	5.44	1073.3	1011.7
50.05	11.06	5.44	1073.8	1011.6
50.06	11.06	5.44	1073.5	1011.8
50.07	11.06	5.44	1073.6	1011.8
50.08	11.06	5.44	1073.4	1011.8
50.09	11.06	5.44	1073.6	1011.7
50.1	11.07	5.44	1073.8	1011.8
50.11	11.07	5.44	1073.6	1011.6
50.12	11.07	5.44	1073.3	1011.8
50.13	11.06	5.44	1074.0	1011.6
50.14	11.06	5.44	1073.6	1011.7
50.15	11.06	5.44	1073.5	1011.6
50.16	11.07	5.44	1073.4	1011.7
50.17	11.06	5.44	1073.6	1011.7
50.18	11.07	5.44	1073.6	1011.7
50.19	11.07	5.44	1073.4	1011.5
50.2	11.07	5.44	1073.4	1011.5
50.21	11.06	5.44	1073.0	1011.7
50.22	11.07	5.44	1073.2	1011.6
50.23	11.05	5.44	1073.1	1011.3
50.24	11.06	5.44	1073.4	1011.2
50.25	11.05	5.44	1073.3	1011.3
50.26	11.06	5.44	1073.3	1011.5
50.27	11.06	5.44	1073.3	1011.5
50.28	11.05	5.44	1073.0	1011.4
50.29	11.07	5.44	1073.0	1011.4
50.3	11.05	5.44	1073.3	1011.4
50.31	11.06	5.44	1073.1	1011.4
50.32	11.05	5.44	1072.6	1011.5
50.33	11.06	5.44	1073.4	1011.5
50.34	11.07	5.44	1073.1	1011.3
50.35	11.06	5.44	1072.6	1011.6
50.36	11.07	5.44	1072.9	1011.2
50.37	11.05	5.44	1072.8	1011.6
50.38	11.06	5.44	1073.2	1011.4
50.39	11.06	5.44	1072.5	1011.5
50.4	11.06	5.44	1073.1	1011.4
50.41	11.06	5.44	1073.2	1011.4
50.42	11.06	5.44	1073.2	1011.7
50.43	11.07	5.44	1072.4	1011.4
50.44	11.06	5.44	1072.9	1011.5
50.45	11.06	5.44	1072.8	1011.4
50.46	11.05	5.43	1073.2	1011.6
50.47	11.06	5.44	1072.4	1011.5
50.48	11.06	5.44	1073.2	1011.5
50.49	11.07	5.44	1072.7	1011.3
50.5	11.06	5.44	1072.9	1011.4
50.51	11.06	5.44	1072.4	1011.5
50.52	11.07	5.44	1073.6	1011.5
50.53	11.05	5.44	1072.9	1011.5
50.54	11.06	5.44	1073.4	1011.4
50.55	11.06	5.44	1072.5	1011.4
50.56	11.05	5.43	1072.5	1011.5
50.57	11.06	5.44	1072.6	1011.4
50.58	11.07	5.44	1072.6	1011.4
50.59	11.05	5.43	1072.0	1011.2
50.6	11.06	5.44	1072.5	1011.5
50.61	11.05	5.43	1072.2	1011.3
50.62	11.05	5.43	1072.5	1011.4
50.63	11.06	5.44	1072.6	1011.3
50.64	11.07	5.44	1072.8	1011.2
50.65	11.06	5.44	1072.0	1011.3
50.66	11.05	5.43	1072.3	1011.4
50.67	11.06	5.44	1071.9	1011.2
50.68	11.07	5.44	1072.1	1011.2
50.69	11.05	5.43	1072.2	1011.3
50.7	11.06	5.44	1072.1	1011.2
50.71	11.05	5.44	1071.6	1011.3
50.72	11.07	5.44	1072.5	1011.5
50.73	11.06	5.44	1071.9	1011.2
50.74	11.06	5.44	1072.2	1011.2
50.75	11.06	5.44	1071.4	1011.1
50.76	11.06	5.44	1071.9	1011.2
50.77	11.05	5.44	1071.6	1011.1
50.78	11.06	5.44	1072.2	1011.2
50.79	11.06	5.44	1072.3	1011.1
50.8	11.06	5.44	1072.4	1011.1
50.81	11.06	5.44	1072.0	1011.2
50.82	11.06	5.44	1071.7	1011.3
50.83	11.07	5.44	1071.7	1011.1
50.84	11.05	5.44	1071.7	1011.2
50.85	11.05	5.44	1071.8	1010.9
50.86	11.06	5.44	1071.6	1011.1
50.87	11.07	5.44	1071.6	1011.1
50.88	11.06	5.44	1072.1	1011.1
50.89	11.07	5.44	1072.1	1011.2
50.9	11.06	5.44	1071.9	1011.0
50.91	11.08	5.44	1072.2	1010.8
50.92	11.06	5.44	1072.3	1011.1
50.93	11.07	5.44	1072.5	1010.8
50.94	11.07	5.44	1072.1	1010.9
50.95	11.07	5.44	1072.0	1010.6
50.96	11.07	5.44	1072.2	1010.8
50.97	11.07	5.44	1071.6	1010.7
50.98	11.05	5.43	1071.8	1010.6
50.99	11.06	5.44	1071.3	1010.8
51.0	11.05	5.43	1072.2	1010.5
51.01	11.06	5.44	1072.1	1010.4
51.02	11.06	5.44	1071.9	1010.8
51.03	11.07	5.44	1071.7	1010.7
51.04	11.06	5.44	1071.6	1010.6
51.05	11.06	5.44	1071.4	1010.6
51.06	11.05	5.44	1071.2	1010.5
51.07	11.05	5.43	1071.6	1010.6
51.08	11.05	5.43	1071.5	1010.6
51.09	11.06	5.44	1071.4	1010.6
51.1	11.05	5.43	1071.1	1010.5
51.11	11.06	5.44	1071.3	1010.7
51.12	11.06	5.44	1071.6	1010.8
51.13	11.05	5.43	1071.4	1010.7
51.14	11.06	5.43	1070.9	1010.7
51.15	11.06	5.44	1071.3	1010.7
51.16	11.06	5.44	1071.3	1010.5
51.17	11.07	5.44	1071.2	1010.6
51.18	11.06	5.44	1071.1	1010.6
51.19	11.05	5.44	1071.2	1010.4
51.2	11.05	5.43	1070.9	1010.6
51.21	11.05	5.43	1071.0	1010.4
51.22	11.07	5.44	1071.2	1010.4
51.23	11.06	5.44	1071.0	1010.3
51.24	11.06	5.43	1071.2	1010.7
51.25	11.06	5.44	1071.2	1010.2
51.26	11.06	5.43	1070.9	1010.5
51.27	11.06	5.44	1071.3	1010.3
51.28	11.05	5.43	1070.7	1010.4
51.29	11.05	5.43	1070.6	1010.3
51.3	11.07	5.44	1070.7	1010.2
51.31	11.06	5.43	1071.2	1010.4
51.32	11.07	5.44	1071.1	1010.2
51.33	11.06	5.43	1070.8	1010.3
51.34	11.05	5.43	1070.8	1010.1
51.35	11.06	5.43	1071.2	1010.2
51.36	11.06	5.43	1070.8	1010.2
51.37	11.06	5.44	1070.6	1010.3
51.38	11.07	5.44	1070.4	1010.4
51.39	11.05	5.43	1070.8	1010.2
51.4	11.05	5.43	1070.9	1010.2
51.41	11.06	5.43	1070.3	1010.0
51.42	11.05	5.43	1070.4	1010.3
51.43	11.06	5.44	1070.8	1009.9
51.44	11.06	5.43	1070.4	1010.1
51.45	11.07	5.44	1070.6	1010.2
51.46	11.06	5.43	1070.4	1009.9
51.47	11.06	5.43	1070.6	1010.1
51.48	11.06	5.44	1070.7	1010.0
51.49	11.06	5.44	1070.4	1009.8
51.5	11.07	5.44	1070.5	1010.0
51.51	11.05	5.43	1071.1	1009.8
51.52	11.05	5.43	1071.0	1010.0
51.53	11.06	5.43	1070.5	1009.9
51.54	11.06	5.43	1070.6	1010.1
51.55	11.06	5.43	1070.6	1010.1
51.56	11.06	5.44	1070.6	1010.1
51.57	11.07	5.44	1070.6	1009.8
51.58	11.06	5.43	1070.7	1010.0
51.59	11.06	5.44	1070.5	1010.0
51.6	11.04	5.43	1070.1	1009.8
51.61	11.06	5.44	1070.4	1009.9
51.62	11.06	5.43	1070.2	1009.7
51.63	11.07	5.43	1070.4	1009.7
51.64	11.05	5.43	1070.5	1009.7
51.65	11.07	5.43	1070.0	1009.9
51.66	11.07	5.44	1070.3	1009.6
51.67	11.07	5.44	1070.4	1009.7
51.68	11.05	5.43	1070.3	1009.8
51.69	11.07	5.43	1069.6	1009.8
51.7	11.07	5.43	1069.9	1010.0
51.71	11.07	5.43	1070.0	1009.8
51.72	11.06	5.44	1070.2	1009.8
51.73	11.06	5.43	1070.1	1009.6
51.74	11.05	5.43	1070.2	1009.7
51.75	11.07	5.43	1069.9	1009.7
51.76	11.06	5.43	1070.1	1009.8
51.77	11.07	5.44	1069.6	1009.8
51.78	11.06	5.43	1069.6	1010.0
51.79	11.06	5.43	1069.4	1010.0
51.8	11.06	5.43	1069.9	1010.1
51.81	11.06	5.43	1069.8	1010.0
51.82	11.05	5.43	1069.8	1009.9
51.83	11.06	5.43	1069.6	1009.9
51.84	11.06	5.43	1070.2	1010.0
51.85	11.05	5.43	1069.7	1009.8
51.86	11.06	5.43	1070.0	1009.7
51.87	11.06	5.43	1069.8	1009.9
51.88	11.06	5.43	1069.6	1009.8
51.89	11.06	5.44	1069.3	1009.7
51.9	11.06	5.43	1069.8	1009.9
51.91	11.05	5.43	1069.8	1009.9
51.92	11.06	5.43	1069.5	1009.7
51.93	11.06	5.43	1070.0	1009.7
51.94	11.05	5.43	1070.0	1009.8
51.95	11.07	5.43	1069.7	1009.8
51.96	11.06	5.43	1069.1	1009.7
51.97	11.07	5.43	1069.1	1010.0
51.98	11.06	5.43	1069.6	1010.0
51.99	11.06	5.43	1069.9	1009.9
52.0	11.07	5.43	1069.7	1009.9
52.01	11.06	5.43	1069.8	1009.7
52.02	11.07	5.43	1070.1	1009.7
52.03	11.07	5.44	1069.6	1009.7
52.04	11.06	5.43	1070.2	1009.8
52.05	11.06	5.43	1069.5	1009.9
52.06	11.05	5.43	1069.5	1009.7
52.07	11.05	5.43	1069.6	1009.8
52.08	11.06	5.43	1069.6	1009.8
52.09	11.06	5.43	1069.5	1009.8
52.1	11.07	5.44	1069.2	1009.5
52.11	11.06	5.43	1069.2	1009.8
52.12	11.06	5.43	1069.3	1009.7
52.13	11.05	5.43	1069.3	1009.7
52.14	11.06	5.43	1068.8	1009.7
52.15	11.06	5.43	1069.0	1009.6
52.16	11.06	5.43	1069.0	1009.7
52.17	11.06	5.43	1069.1	1009.7
52.18	11.06	5.43	1069.3	1009.8
52.19	11.04	5.43	1068.7	1009.7
52.2	11.06	5.43	1069.3	1009.7
52.21	11.05	5.43	1069.0	1009.8
52.22	11.06	5.43	1069.2	1009.8
52.23	11.07	5.43	1069.0	1009.7
52.24	11.06	5.43	1069.2	1009.9
52.25	11.06	5.43	1068.8	1009.6
52.26	11.05	5.43	1068.9	1009.7
52.27	11.05	5.43	1068.9	1009.7
52.28	11.05	5.43	1069.0	1009.6
52.29	11.06	5.43	1068.7	1009.7
52.3	11.05	5.43	1068.9	1009.7
52.31	11.06	5.43	1068.9	1009.8
52.32	11.05	5.43	1069.3	1009.7
52.33	11.06	5.43	1069.1	1009.7
52.34	11.06	5.43	1069.0	1009.6
52.35	11.06	5.43	1068.5	1009.6
52.36	11.06	5.43	1068.9	1009.6
52.37	11.06	5.43	1068.6	1009.5
52.38	11.05	5.43	1068.6	1009.6
52.39	11.07	5.43	1068.1	1009.6
52.4	11.06	5.43	1068.4	1009.4
52.41	11.08	5.44	1068.7	1009.3
52.42	11.06	5.43	1068.8	1009.6
52.43	11.05	5.42	1068.2	1009.6
52.44	11.06	5.43	1069.3	1009.4
52.45	11.07	5.43	1069.0	1009.6
52.46	11.06	5.43	1068.9	1009.5
52.47	11.08	5.43	1068.0	1009.7
52.48	11.06	5.43	1068.9	1009.5
52.49	11.07	5.43	1068.6	1009.7
52.5	11.06	5.43	1069.3	1009.4
52.51	11.05	5.43	1068.6	1009.6
52.52	11.07	5.43	1069.1	1009.4
52.53	11.06	5.43	1068.2	1009.3
52.54	11.06	5.43	1068.5	1009.3
52.55	11.05	5.43	1068.4	1009.5
52.56	11.06	5.43	1069.1	1009.4
52.57	11.05	5.43	1068.6	1009.3
52.58	11.06	5.43	1068.5	1009.4
52.59	11.06	5.43	1068.6	1009.4
52.6	11.06	5.43	1068.6	1009.3
52.61	11.06	5.43	1068.3	1009.2
52.62	11.05	5.43	1068.6	1009.3
52.63	11.06	5.43	1068.4	1009.2
52.64	11.06	5.43	1069.1	1009.4
52.65	11.06	5.43	1068.5	1009.3
52.66	11.06	5.43	1068.5	1009.1
52.67	11.05	5.43	1068.2	1009.1
52.68	11.07	5.43	1068.5	1009.2
52.69	11.05	5.43	1068.0	1009.0
52.7	11.07	5.43	1068.1	1009.2
52.71	11.06	5.43	1068.2	1009.1
52.72	11.06	5.43	1068.5	1009.3
52.73	11.06	5.43	1067.9	1009.3
52.74	11.07	5.43	1067.8	1009.2
52.75	11.06	5.43	1067.4	1009.2
52.76	11.06	5.43	1068.5	1009.3
52.77	11.04	5.42	1068.3	1009.2
52.78	11.06	5.43	1067.7	1009.1
52.79	11.06	5.43	1067.9	1009.3
52.8	11.06	5.43	1068.0	1009.4
52.81	11.06	5.43	1067.8	1009.3
52.82	11.06	5.43	1068.0	1009.1
52.83	11.06	5.43	1067.5	1009.2
52.84	11.06	5.43	1068.0	1009.2
52.85	11.06	5.43	1067.9	1009.3
52.86	11.06	5.43	1067.6	1009.4
52.87	11.05	5.43	1067.7	1009.1
52.88	11.06	5.43	1067.8	1009.4
52.89	11.06	5.43	1067.8	1009.2
52.9	11.06	5.43	1067.7	1009.2
52.91	11.05	5.43	1068.0	1009.0
52.92	11.06	5.43	1067.9	1009.0
52.93	11.06	5.43	1067.6	1009.0
52.94	11.06	5.43	1067.2	1009.1
52.95	11.06	5.43	1068.0	1009.0
52.96	11.07	5.43	1067.7	1009.2
52.97	11.06	5.43	1067.7	1009.2
52.98	11.07	5.43	1067.6	1009.1
52.99	11.05	5.42	1067.6	1009.0
53.0	11.07	5.43	1067.6	1008.8
53.01	11.06	5.43	1067.2	1008.9
53.02	11.06	5.43	1066.8	1009.1
53.03	11.08	5.43	1067.4	1009.2
53.04	11.06	5.43	1067.6	1009.2
53.05	11.07	5.43	1067.7	1008.8
53.06	11.06	5.43	1067.4	1008.8
53.07	11.07	5.43	1067.4	1008.9
53.08	11.06	5.43	1067.4	1009.0
53.09	11.07	5.43	1067.4	1008.8
53.1	11.06	5.43	1067.1	1009.0
53.11	11.06	5.43	1067.4	1009.0
53.12	11.06	5.43	1067.2	1008.9
53.13	11.06	5.43	1067.4	1008.9
53.14	11.06	5.43	1067.0	1008.8
53.15	11.06	5.43	1066.8	1008.8
53.16	11.06	5.43	1067.2	1009.0
53.17	11.07	5.43	1067.5	1008.8
53.18	11.06	5.42	1067.5	1008.8
53.19	11.07	5.43	1067.7	1008.9
53.2	11.06	5.43	1067.3	1008.8
53.21	11.07	5.43	1067.3	1009.0
53.22	11.06	5.43	1067.1	1008.7
53.23	11.05	5.42	1067.3	1008.7
53.24	11.07	5.43	1067.0	1008.8
53.25	11.07	5.43	1067.7	1008.8
53.26	11.05	5.42	1066.9	1008.6
53.27	11.07	5.43	1067.3	1008.8
53.28	11.05	5.42	1067.2	1008.6
53.29	11.05	5.43	1066.9	1008.8
53.3	11.06	5.43	1066.3	1008.6
53.31	11.06	5.43	1066.7	1008.8
53.32	11.06	5.43	1066.8	1008.7
53.33	11.05	5.42	1066.5	1008.7
53.34	11.05	5.43	1066.4	1008.6
53.35	11.05	5.43	1066.6	1008.8
53.36	11.05	5.42	1067.0	1008.6
53.37	11.06	5.43	1066.7	1008.7
53.38	11.06	5.43	1066.8	1008.6
53.39	11.05	5.42	1067.0	1008.6
53.4	11.06	5.43	1067.0	1008.9
53.41	11.05	5.42	1066.4	1008.6
53.42	11.07	5.43	1066.0	1008.3
53.43	11.05	5.42	1066.5	1008.5
53.44	11.06	5.43	1066.6	1008.5
53.45	11.06	5.43	1066.2	1008.6
53.46	11.06	5.43	1066.2	1008.5
53.47	11.06	5.42	1066.6	1008.6
53.48	11.07	5.43	1066.6	1008.8
53.49	11.06	5.43	1066.4	1008.8
53.5	11.07	5.43	1065.8	1008.7
53.51	11.06	5.43	1067.0	1008.8
53.52	11.06	5.42	1066.2	1008.6
53.53	11.06	5.43	1066.4	1008.6
53.54	11.06	5.42	1066.2	1008.6
53.55	11.07	5.43	1066.5	1008.6
53.56	11.06	5.42	1066.2	1008.5
53.57	11.06	5.42	1066.4	1008.7
53.58	11.06	5.42	1066.4	1008.9
53.59	11.05	5.42	1066.4	1008.7
53.6	11.06	5.42	1066.6	1008.6
53.61	11.06	5.42	1066.3	1008.7
53.62	11.06	5.42	1066.3	1008.6
53.63	11.05	5.42	1066.5	1008.7
53.64	11.06	5.43	1066.3	1008.4
53.65	11.06	5.42	1066.2	1008.7
53.66	11.06	5.42	1065.7	1008.4
53.67	11.05	5.42	1066.2	1008.5
53.68	11.06	5.43	1066.4	1008.4
53.69	11.06	5.42	1065.8	1008.6
53.7	11.07	5.43	1066.0	1008.5
53.71	11.06	5.42	1066.4	1008.5
53.72	11.05	5.42	1066.2	1008.6
53.73	11.06	5.43	1066.2	1008.3
53.74	11.05	5.43	1065.8	1008.6
53.75	11.06	5.42	1066.4	1008.4
53.76	11.06	5.42	1066.1	1008.5
53.77	11.05	5.42	1065.4	1008.6
53.78	11.06	5.43	1066.1	1008.7
53.79	11.07	5.43	1065.8	1008.5
53.8	11.06	5.43	1066.1	1008.5
53.81	11.06	5.43	1065.4	1008.5
53.82	11.06	5.42	1066.3	1008.5
53.83	11.06	5.42	1065.8	1008.4
53.84	11.06	5.43	1066.1	1008.2
53.85	11.06	5.42	1066.2	1008.6
53.86	11.05	5.42	1066.0	1008.5
53.87	11.07	5.42	1066.1	1008.5
53.88	11.05	5.42	1066.3	1008.3
53.89	11.06	5.42	1065.9	1008.6
53.9	11.05	5.42	1065.6	1008.6
53.91	11.07	5.43	1065.7	1008.3
53.92	11.06	5.42	1065.9	1008.4
53.93	11.07	5.42	1065.5	1008.2
53.94	11.06	5.42	1065.6	1008.3
53.95	11.06	5.42	1065.7	1008.4
53.96	11.06	5.42	1066.2	1008.3
53.97	11.07	5.43	1066.0	1008.2
53.98	11.06	5.42	1066.0	1008.4
53.99	11.06	5.42	1065.6	1008.3
54.0	11.05	5.42	1065.8	1008.2
54.01	11.05	5.42	1065.9	1008.3
54.02	11.06	5.42	1066.0	1008.3
54.03	11.05	5.42	1066.0	1008.2
54.04	11.06	5.42	1065.7	1008.1
54.05	11.06	5.42	1065.5	1008.2
54.06	11.05	5.42	1065.7	1008.0
54.07	11.06	5.42	1065.3	1008.2
54.08	11.06	5.42	1065.6	1008.1
54.09	11.06	5.43	1065.2	1008.2
54.1	11.06	5.42	1065.6	1008.2
54.11	11.06	5.42	1065.3	1008.1
54.12	11.07	5.42	1065.6	1008.4
54.13	11.05	5.42	1065.0	1008.2
54.14	11.06	5.42	1065.6	1008.3
54.15	11.06	5.42	1065.5	1008.2
54.16	11.06	5.42	1065.4	1008.4
54.17	11.06	5.42	1065.3	1008.2
54.18	11.06	5.42	1065.9	1008.4
54.19	11.06	5.42	1065.5	1008.4
54.2	11.07	5.43	1065.5	1008.2
54.21	11.06	5.43	1065.6	1008.2
54.22	11.07	5.42	1066.1	1008.5
54.23	11.05	5.42	1065.6	1008.1
54.24	11.05	5.42	1065.4	1008.2
54.25	11.05	5.42	1064.8	1008.2
54.26	11.07	5.42	1065.1	1008.2
54.27	11.05	5.42	1065.3	1008.1
54.28	11.06	5.42	1065.2	1008.1
54.29	11.06	5.42	1064.9	1008.1
54.3	11.06	5.42	1065.4	1008.1
54.31	11.07	5.42	1064.9	1008.1
54.32	11.07	5.42	1065.4	1007.9
54.33	11.06	5.42	1065.0	1008.0
54.34	11.05	5.42	1065.0	1007.8
54.35	11.05	5.42	1065.1	1008.2
54.36	11.06	5.42	1065.4	1007.9
54.37	11.06	5.42	1064.4	1007.9
54.38	11.06	5.42	1064.9	1007.6
54.39	11.06	5.42	1065.0	1007.9
54.4	11.05	5.42	1064.7	1008.0
54.41	11.05	5.42	1064.5	1007.9
54.42	11.05	5.42	1064.9	1007.8
54.43	11.06	5.42	1065.2	1007.8
54.44	11.06	5.42	1064.9	1007.7
54.45	11.06	5.42	1064.4	1007.7
54.46	11.06	5.42	1065.1	1007.6
54.47	11.06	5.42	1064.9	1007.5
54.48	11.06	5.42	1065.0	1007.7
54.49	11.06	5.42	1064.6	1007.8
54.5	11.06	5.42	1064.9	1007.7
54.51	11.06	5.42	1064.6	1007.6
54.52	11.06	5.42	1064.8	1007.6
54.53	11.06	5.42	1064.4	1007.6
54.54	11.05	5.42	1064.8	1007.8
54.55	11.07	5.42	1064.9	1007.8
54.56	11.06	5.42	1065.0	1007.7
54.57	11.06	5.42	1064.3	1007.8
54.58	11.06	5.42	1064.7	1007.7
54.59	11.06	5.42	1064.6	1007.7
54.6	11.06	5.42	1064.6	1007.7
54.61	11.07	5.42	1064.7	1007.7
54.62	11.06	5.42	1064.4	1007.7
54.63	11.06	5.42	1064.3	1007.7
54.64	11.06	5.42	1064.6	1007.5
54.65	11.06	5.42	1064.4	1007.8
54.66	11.07	5.42	1064.6	1007.7
54.67	11.06	5.42	1064.2	1007.8
54.68	11.07	5.42	1065.0	1007.7
54.69	11.06	5.42	1064.3	1007.6
54.7	11.07	5.42	1064.7	1007.8
54.71	11.07	5.42	1064.7	1007.8
54.72	11.07	5.42	1064.1	1007.5
54.73	11.05	5.42	1064.1	1007.7
54.74	11.07	5.42	1064.8	1007.7
54.75	11.06	5.42	1064.6	1007.6
54.76	11.05	5.42	1064.4	1007.8
54.77	11.07	5.42	1064.4	1007.8
54.78	11.06	5.42	1064.3	1007.8
54.79	11.06	5.42	1064.0	1007.6
54.8	11.06	5.42	1064.5	1007.8
54.81	11.05	5.42	1064.3	1007.7
54.82	11.07	5.42	1064.3	1007.7
54.83	11.06	5.42	1064.4	1007.7
54.84	11.06	5.42	1063.9	1007.7
54.85	11.07	5.42	1063.9	1007.4
54.86	11.05	5.42	1064.0	1007.4
54.87	11.05	5.42	1064.0	1007.5
54.88	11.05	5.42	1063.9	1007.4
54.89	11.05	5.42	1063.8	1007.7
54.9	11.07	5.42	1064.1	1007.5
54.91	11.06	5.42	1064.3	1007.5
54.92	11.07	5.42	1064.1	1007.5
54.93	11.05	5.42	1064.2	1007.6
54.94	11.05	5.41	1064.2	1007.4
54.95	11.05	5.42	1063.9	1007.8
54.96	11.06	5.42	1064.3	1007.4
54.97	11.06	5.42	1064.1	1007.5
54.98	11.06	5.42	1063.4	1007.8
54.99	11.05	5.42	1063.4	1007.4
55.0	11.07	5.42	1063.6	1007.4
55.01	11.06	5.42	1063.7	1007.6
55.02	11.06	5.42	1063.6	1007.3
55.03	11.06	5.42	1063.6	1007.5
55.04	11.06	5.42	1063.8	1007.4
55.05	11.07	5.42	1064.0	1007.4
55.06	11.06	5.42	1064.2	1007.4
55.07	11.07	5.42	1063.1	1007.2
55.08	11.06	5.42	1063.9	1007.2
55.09	11.06	5.42	1063.8	1007.5
55.1	11.06	5.42	1063.6	1007.5
55.11	11.06	5.42	1063.3	1007.3
55.12	11.05	5.42	1063.5	1007.3
55.13	11.06	5.42	1063.6	1007.4
55.14	11.06	5.42	1063.7	1007.4
55.15	11.06	5.42	1063.7	1007.2
55.16	11.06	5.42	1064.0	1007.3
55.17	11.06	5.42	1064.0	1007.3
55.18	11.06	5.42	1064.1	1007.5
55.19	11.07	5.42	1063.7	1007.4
55.2	11.06	5.42	1063.5	1007.4
55.21	11.07	5.42	1063.7	1007.4
55.22	11.06	5.42	1063.6	1007.0
55.23	11.06	5.42	1063.5	1007.3
55.24	11.05	5.42	1063.4	1007.1
55.25	11.06	5.42	1063.8	1007.3
55.26	11.06	5.42	1063.4	1007.1
55.27	11.06	5.42	1063.2	1007.1
55.28	11.07	5.42	1063.4	1007.2
55.29	11.06	5.42	1063.5	1007.2
55.3	11.06	5.42	1063.7	1007.2
55.31	11.06	5.42	1063.5	1007.1
55.32	11.06	5.42	1063.9	1007.1
55.33	11.06	5.42	1063.2	1007.3
55.34	11.07	5.42	1063.4	1007.1
55.35	11.06	5.42	1063.1	1007.1
55.36	11.05	5.42	1063.3	1007.3
55.37	11.06	5.42	1063.4	1006.9
55.38	11.07	5.42	1062.8	1007.1
55.39	11.07	5.42	1062.9	1007.1
55.4	11.06	5.42	1063.3	1007.0
55.41	11.06	5.42	1063.0	1006.9
55.42	11.06	5.42	1063.5	1007.0
55.43	11.06	5.42	1062.9	1007.1
55.44	11.06	5.42	1063.3	1007.0
55.45	11.06	5.42	1063.0	1007.0
55.46	11.07	5.42	1063.0	1007.0
55.47	11.06	5.42	1063.0	1006.9
55.48	11.06	5.42	1062.8	1007.0
55.49	11.06	5.42	1062.9	1006.8
55.5	11.06	5.42	1062.6	1006.8
55.51	11.05	5.42	1062.2	1006.8
55.52	11.07	5.42	1063.1	1007.0
55.53	11.05	5.42	1062.7	1006.8
55.54	11.06	5.42	1063.2	1006.9
55.55	11.07	5.42	1063.0	1006.9
55.56	11.06	5.42	1063.1	1006.9
55.57	11.06	5.42	1062.5	1006.9
55.58	11.06	5.42	1062.8	1007.1
55.59	11.05	5.42	1062.5	1007.0
55.6	11.06	5.42	1062.7	1006.6
55.61	11.06	5.42	1062.4	1006.8
55.62	11.06	5.42	1062.8	1006.8
55.63	11.06	5.42	1062.8	1007.0
55.64	11.06	5.42	1062.4	1006.7
55.65	11.06	5.42	1062.5	1006.9
55.66	11.06	5.42	1062.6	1006.7
55.67	11.05	5.42	1062.5	1006.8
55.68	11.06	5.42	1062.6	1006.8
55.69	11.05	5.41	1062.6	1006.8
55.7	11.07	5.42	1061.9	1006.8
55.71	11.05	5.42	1062.3	1006.8
55.72	11.07	5.42	1062.3	1006.6
55.73	11.06	5.42	1062.4	1007.0
55.74	11.05	5.41	1062.1	1006.8
55.75	11.06	5.42	1062.4	1006.9
55.76	11.06	5.41	1062.6	1006.9
55.77	11.06	5.41	1062.5	1006.8
55.78	11.06	5.42	1062.2	1006.8
55.79	11.07	5.42	1062.1	1006.9
55.8	11.06	5.41	1062.3	1006.6
55.81	11.07	5.42	1062.4	1006.8
55.82	11.06	5.42	1062.4	1006.9
55.83	11.06	5.42	1062.1	1006.8
55.84	11.05	5.42	1062.0	1006.6
55.85	11.06	5.41	1062.1	1006.8
55.86	11.06	5.42	1061.3	1006.6
55.87	11.07	5.42	1062.0	1006.8
55.88	11.05	5.42	1062.1	1006.7
55.89	11.06	5.41	1062.3	1006.6
55.9	11.05	5.41	1062.1	1006.6
55.91	11.07	5.42	1061.6	1006.4
55.92	11.05	5.42	1061.8	1006.6
55.93	11.07	5.42	1061.7	1006.9
55.94	11.05	5.42	1061.7	1006.6
55.95	11.06	5.41	1061.6	1006.7
55.96	11.06	5.42	1061.9	1006.4
55.97	11.06	5.42	1061.6	1006.6
55.98	11.05	5.41	1061.6	1006.8
55.99	11.06	5.42	1061.4	1006.5
56.0	11.06	5.41	1061.5	1006.8
56.01	11.06	5.42	1061.6	1006.6
56.02	11.06	5.41	1061.6	1006.5
56.03	11.06	5.42	1061.7	1006.5
56.04	11.06	5.42	1062.1	1006.7
56.05	11.07	5.42	1061.8	1006.6
56.06	11.06	5.42	1061.7	1006.6
56.07	11.07	5.42	1062.0	1006.9
56.08	11.05	5.41	1061.8	1006.7
56.09	11.07	5.42	1061.8	1006.6
56.1	11.07	5.42	1061.8	1006.7
56.11	11.07	5.42	1061.7	1006.7
56.12	11.06	5.42	1061.6	1006.4
56.13	11.06	5.41	1061.9	1006.6
56.14	11.07	5.42	1061.6	1006.7
56.15	11.05	5.41	1061.5	1006.4
56.16	11.05	5.41	1061.8	1006.6
56.17	11.05	5.42	1061.7	1006.6
56.18	11.06	5.41	1061.6	1006.6
56.19	11.05	5.42	1061.6	1006.5
56.2	11.06	5.41	1061.6	1006.8
56.21	11.05	5.41	1061.2	1006.4
56.22	11.06	5.42	1061.4	1006.4
56.23	11.06	5.41	1061.7	1006.6
56.24	11.07	5.42	1061.7	1006.5
56.25	11.07	5.42	1061.5	1006.5
56.26	11.06	5.42	1061.8	1006.2
56.27	11.06	5.42	1062.0	1006.4
56.28	11.07	5.42	1061.4	1006.5
56.29	11.06	5.41	1060.8	1006.7
56.3	11.06	5.42	1061.0	1006.5
56.31	11.06	5.42	1061.0	1006.3
56.32	11.05	5.41	1060.8	1006.6
56.33	11.06	5.41	1061.0	1006.4
56.34	11.06	5.41	1061.4	1006.5
56.35	11.06	5.41	1061.3	1006.6
56.36	11.06	5.41	1061.4	1006.5
56.37	11.06	5.42	1061.1	1006.3
56.38	11.06	5.42	1061.2	1006.4
56.39	11.06	5.41	1060.8	1006.8
56.4	11.06	5.41	1060.8	1006.5
56.41	11.05	5.41	1060.9	1006.6
56.42	11.06	5.42	1060.8	1006.6
56.43	11.05	5.41	1061.0	1006.5
56.44	11.06	5.41	1061.1	1006.4
56.45	11.07	5.42	1061.2	1006.5
56.46	11.06	5.41	1061.2	1006.3
56.47	11.06	5.42	1060.8	1006.7
56.48	11.07	5.42	1060.9	1006.5
56.49	11.07	5.42	1060.9	1006.8
56.5	11.06	5.41	1060.8	1006.5
56.51	11.05	5.41	1060.5	1006.5
56.52	11.07	5.41	1060.4	1006.4
56.53	11.07	5.42	1060.6	1006.4
56.54	11.06	5.41	1061.2	1006.4
56.55	11.06	5.42	1061.1	1006.0
56.56	11.06	5.41	1061.0	1006.2
56.57	11.06	5.41	1060.6	1006.3
56.58	11.06	5.42	1061.0	1006.0
56.59	11.07	5.42	1060.6	1006.1
56.6	11.07	5.42	1060.8	1006.4
56.61	11.06	5.41	1060.3	1006.4
56.62	11.05	5.41	1060.8	1005.8
56.63	11.07	5.42	1060.7	1006.2
56.64	11.05	5.41	1061.1	1006.1
56.65	11.06	5.41	1060.9	1006.0
56.66	11.06	5.41	1061.2	1006.0
56.67	11.04	5.41	1060.7	1006.2
56.68	11.06	5.42	1060.7	1006.0
56.69	11.06	5.41	1060.8	1006.0
56.7	11.06	5.42	1060.7	1006.1
56.71	11.06	5.42	1060.6	1006.1
56.72	11.05	5.41	1061.1	1006.0
56.73	11.07	5.41	1060.3	1006.1
56.74	11.05	5.41	1060.3	1006.0
56.75	11.06	5.42	1060.5	1006.1
56.76	11.06	5.42	1060.8	1006.0
56.77	11.06	5.41	1060.3	1006.0
56.78	11.06	5.41	1060.5	1005.9
56.79	11.06	5.41	1060.5	1005.9
56.8	11.07	5.41	1060.4	1005.9
56.81	11.07	5.42	1060.1	1005.8
56.82	11.06	5.41	1060.4	1006.0
56.83	11.06	5.41	1060.4	1005.8
56.84	11.07	5.41	1060.5	1006.0
56.85	11.06	5.41	1060.4	1006.1
56.86	11.05	5.41	1060.4	1006.0
56.87	11.05	5.41	1060.4	1005.9
56.88	11.06	5.41	1060.1	1005.9
56.89	11.05	5.41	1059.8	1005.9
56.9	11.05	5.41	1060.3	1005.9
56.91	11.06	5.41	1060.3	1005.9
56.92	11.07	5.41	1060.1	1005.8
56.93	11.05	5.41	1059.9	1005.9
56.94	11.06	5.41	1060.0	1005.9
56.95	11.04	5.41	1060.4	1005.9
56.96	11.06	5.41	1060.4	1006.1
56.97	11.06	5.41	1059.7	1005.9
56.98	11.05	5.41	1060.2	1005.7
56.99	11.05	5.41	1060.2	1006.2
57.0	11.06	5.41	1060.4	1006.0
57.01	11.06	5.41	1059.7	1006.0
57.02	11.07	5.41	1060.2	1005.8
57.03	11.05	5.41	1060.2	1006.0
57.04	11.06	5.41	1059.6	1005.8
57.05	11.05	5.41	1060.3	1005.6
57.06	11.06	5.41	1060.0	1005.7
57.07	11.06	5.41	1060.1	1005.9
57.08	11.06	5.41	1060.5	1005.8
57.09	11.06	5.41	1060.2	1005.6
57.1	11.06	5.41	1059.9	1005.8
57.11	11.05	5.41	1060.2	1005.6
57.12	11.06	5.41	1060.0	1005.5
57.13	11.05	5.41	1060.0	1005.7
57.14	11.05	5.41	1060.0	1005.6
57.15	11.07	5.41	1059.9	1005.6
57.16	11.06	5.41	1060.0	1005.8
57.17	11.05	5.41	1060.0	1005.6
57.18	11.05	5.41	1060.0	1005.7
57.19	11.07	5.42	1059.6	1005.6
57.2	11.05	5.41	1059.0	1005.6
57.21	11.05	5.41	1059.8	1005.8
57.22	11.06	5.41	1059.9	1005.6
57.23	11.06	5.41	1059.7	1005.8
57.24	11.05	5.41	1059.7	1005.7
57.25	11.05	5.41	1060.2	1005.7
57.26	11.06	5.41	1059.8	1005.8
57.27	11.07	5.41	1059.8	1005.6
57.28	11.07	5.41	1059.2	1005.8
57.29	11.06	5.41	1059.9	1005.6
57.3	11.05	5.41	1059.6	1005.8
57.31	11.06	5.41	1059.6	1005.6
57.32	11.05	5.41	1059.4	1005.8
57.33	11.06	5.41	1060.0	1005.7
57.34	11.06	5.41	1059.4	1005.7
57.35	11.06	5.41	1059.2	1005.6
57.36	11.06	5.41	1059.6	1005.5
57.37	11.06	5.41	1059.8	1005.6
57.38	11.05	5.41	1059.7	1005.6
57.39	11.05	5.41	1059.4	1005.5
57.4	11.06	5.41	1058.9	1005.8
57.41	11.07	5.41	1059.5	1005.6
57.42	11.05	5.41	1059.4	1005.6
57.43	11.05	5.41	1059.1	1005.6
57.44	11.05	5.41	1058.8	1005.5
57.45	11.06	5.41	1059.3	1005.5
57.46	11.05	5.41	1058.9	1005.5
57.47	11.06	5.41	1059.1	1005.5
57.48	11.05	5.41	1059.4	1005.5
57.49	11.07	5.41	1059.6	1005.5
57.5	11.06	5.41	1059.2	1005.6
57.51	11.06	5.41	1058.7	1005.8
57.52	11.05	5.41	1059.2	1005.3
57.53	11.06	5.41	1059.1	1005.6
57.54	11.07	5.41	1059.3	1005.4
57.55	11.06	5.41	1059.3	1005.4
57.56	11.05	5.41	1059.2	1005.3
57.57	11.07	5.41	1059.0	1005.5
57.58	11.06	5.41	1059.4	1005.5
57.59	11.06	5.41	1059.2	1005.5
57.6	11.06	5.41	1058.8	1005.7
57.61	11.05	5.41	1059.3	1005.5
57.62	11.06	5.41	1059.1	1005.5
57.63	11.06	5.41	1058.6	1005.4
57.64	11.07	5.42	1059.0	1005.4
57.65	11.06	5.41	1059.0	1005.5
57.66	11.06	5.41	1059.1	1005.4
57.67	11.06	5.41	1058.2	1005.5
57.68	11.05	5.41	1058.8	1005.3
57.69	11.05	5.41	1058.9	1005.4
57.7	11.06	5.41	1058.4	1005.4
57.71	11.05	5.41	1059.0	1005.2
57.72	11.07	5.41	1058.6	1005.4
57.73	11.05	5.41	1058.9	1005.2
57.74	11.06	5.41	1058.8	1005.4
57.75	11.05	5.41	1059.0	1005.5
57.76	11.06	5.41	1059.2	1005.4
57.77	11.06	5.41	1059.1	1005.4
57.78	11.06	5.41	1058.7	1005.4
57.79	11.06	5.41	1058.4	1005.3
57.8	11.06	5.41	1059.0	1005.5
57.81	11.04	5.41	1058.9	1005.4
57.82	11.06	5.41	1058.8	1005.3
57.83	11.06	5.41	1058.4	1005.3
57.84	11.05	5.41	1058.8	1005.1
57.85	11.05	5.41	1059.0	1005.6
57.86	11.05	5.41	1058.7	1005.2
57.87	11.06	5.41	1058.9	1005.3
57.88	11.06	5.41	1058.4	1005.4
57.89	11.05	5.41	1058.6	1005.4
57.9	11.06	5.41	1058.9	1005.2
57.91	11.05	5.41	1059.2	1005.3
57.92	11.06	5.41	1058.9	1005.1
57.93	11.06	5.41	1059.0	1005.4
57.94	11.05	5.41	1059.2	1005.1
57.95	11.06	5.41	1058.9	1005.2
57.96	11.06	5.41	1059.2	1005.3
57.97	11.06	5.41	1059.2	1005.3
57.98	11.06	5.41	1059.0	1005.1
57.99	11.06	5.41	1058.4	1005.2
58.0	11.06	5.41	1058.6	1004.9
58.01	11.07	5.41	1059.1	1005.1
58.02	11.06	5.41	1059.0	1005.1
58.03	11.06	5.41	1058.9	1005.3
58.04	11.06	5.41	1059.2	1005.1
58.05	11.06	5.41	1059.2	1005.3
58.06	11.07	5.41	1058.7	1005.0
58.07	11.06	5.41	1058.6	1005.2
58.08	11.06	5.41	1058.8	1005.3
58.09	11.06	5.41	1058.9	1005.0
58.1	11.05	5.41	1058.8	1005.3
58.11	11.07	5.41	1058.5	1005.2
58.12	11.05	5.41	1058.6	1005.1
58.13	11.07	5.41	1059.0	1005.0
58.14	11.06	5.41	1058.8	1005.0
58.15	11.06	5.41	1058.7	1005.1
58.16	11.06	5.41	1058.4	1005.2
58.17	11.06	5.41	1058.4	1005.1
58.18	11.05	5.41	1058.2	1005.2
58.19	11.06	5.41	1058.0	1005.2
58.2	11.05	5.41	1058.5	1005.4
58.21	11.06	5.41	1058.2	1005.1
58.22	11.06	5.41	1058.3	1005.1
58.23	11.05	5.4	1058.5	1005.2
58.24	11.06	5.41	1058.7	1004.9
58.25	11.07	5.41	1058.6	1005.3
58.26	11.06	5.41	1058.7	1004.8
58.27	11.06	5.41	1059.0	1005.2
58.28	11.06	5.41	1058.8	1004.9
58.29	11.05	5.41	1058.3	1005.0
58.3	11.07	5.41	1058.4	1004.9
58.31	11.06	5.41	1058.3	1005.0
58.32	11.06	5.41	1058.7	1004.8
58.33	11.06	5.41	1058.2	1004.9
58.34	11.07	5.41	1058.2	1004.7
58.35	11.06	5.41	1058.0	1004.7
58.36	11.05	5.4	1058.3	1004.6
58.37	11.06	5.41	1058.1	1004.9
58.38	11.06	5.41	1058.2	1004.8
58.39	11.06	5.41	1057.9	1004.7
58.4	11.07	5.41	1058.1	1004.9
58.41	11.05	5.41	1057.8	1004.6
58.42	11.07	5.41	1057.8	1004.6
58.43	11.06	5.41	1057.9	1004.9
58.44	11.06	5.41	1058.1	1004.8
58.45	11.06	5.41	1058.3	1004.8
58.46	11.07	5.41	1058.2	1004.6
58.47	11.06	5.41	1058.2	1004.5
58.48	11.06	5.41	1057.6	1004.4
58.49	11.06	5.41	1058.1	1004.8
58.5	11.07	5.41	1057.8	1004.5
58.51	11.05	5.41	1057.9	1004.6
58.52	11.06	5.41	1058.2	1004.5
58.53	11.05	5.41	1058.6	1004.4
58.54	11.06	5.41	1058.2	1004.4
58.55	11.06	5.41	1058.3	1004.4
58.56	11.06	5.41	1058.0	1004.2
58.57	11.06	5.41	1057.7	1004.3
58.58	11.05	5.41	1057.6	1004.0
58.59	11.05	5.4	1058.0	1004.4
58.6	11.06	5.41	1058.2	1004.2
58.61	11.06	5.41	1057.9	1004.5
58.62	11.07	5.41	1058.4	1004.5
58.63	11.05	5.41	1058.2	1004.5
58.64	11.05	5.41	1058.0	1004.4
58.65	11.07	5.41	1057.7	1004.4
58.66	11.05	5.41	1057.9	1004.6
58.67	11.06	5.41	1057.5	1004.5
58.68	11.06	5.41	1058.1	1004.5
58.69	11.06	5.41	1058.2	1004.8
58.7	11.06	5.41	1057.5	1004.4
58.71	11.06	5.41	1057.9	1004.7
58.72	11.06	5.41	1057.8	1004.5
58.73	11.06	5.41	1057.8	1004.5
58.74	11.06	5.41	1057.3	1004.5
58.75	11.07	5.41	1057.6	1004.8
58.76	11.06	5.41	1057.6	1004.8
58.77	11.07	5.41	1057.3	1004.7
58.78	11.06	5.41	1057.5	1004.5
58.79	11.06	5.41	1057.8	1004.6
58.8	11.06	5.41	1057.4	1004.6
58.81	11.07	5.41	1057.6	1004.5
58.82	11.05	5.41	1057.5	1004.5
58.83	11.07	5.41	1057.6	1004.6
58.84	11.05	5.41	1057.6	1004.5
58.85	11.06	5.41	1057.3	1004.8
58.86	11.06	5.41	1057.2	1004.6
58.87	11.06	5.4	1057.6	1004.4
58.88	11.06	5.41	1057.4	1004.9
58.89	11.06	5.41	1057.3	1004.5
58.9	11.05	5.41	1057.3	1004.6
58.91	11.06	5.4	1057.5	1004.4
58.92	11.05	5.4	1057.5	1004.5
58.93	11.06	5.41	1057.1	1004.7
58.94	11.06	5.41	1057.2	1004.7
58.95	11.06	5.41	1057.3	1004.4
58.96	11.06	5.41	1057.4	1004.5
58.97	11.06	5.41	1057.2	1004.5
58.98	11.05	5.41	1056.9	1004.5
58.99	11.05	5.41	1056.8	1004.4
59.0	11.07	5.41	1057.4	1004.4
59.01	11.07	5.41	1057.3	1004.6
59.02	11.06	5.41	1056.8	1004.5
59.03	11.06	5.41	1057.4	1004.5
59.04	11.06	5.41	1057.3	1004.3
59.05	11.05	5.41	1057.3	1004.6
59.06	11.06	5.4	1057.0	1004.4
59.07	11.06	5.41	1057.3	1004.5
59.08	11.07	5.41	1056.9	1004.3
59.09	11.07	5.41	1056.7	1004.5
59.1	11.07	5.41	1056.8	1004.0
59.11	11.07	5.41	1057.3	1004.3
59.12	11.07	5.41	1057.2	1004.1
59.13	11.06	5.41	1056.7	1004.4
59.14	11.06	5.41	1056.6	1004.3
59.15	11.05	5.41	1057.0	1004.2
59.16	11.06	5.4	1056.9	1004.7
59.17	11.06	5.41	1056.8	1004.6
59.18	11.07	5.41	1056.8	1004.6
59.19	11.05	5.41	1057.1	1004.8
59.2	11.07	5.41	1056.8	1004.4
59.21	11.06	5.41	1056.5	1004.6
59.22	11.06	5.4	1056.8	1004.6
59.23	11.05	5.4	1056.6	1004.5
59.24	11.06	5.4	1056.9	1004.6
59.25	11.06	5.41	1056.4	1004.6
59.26	11.05	5.41	1056.9	1004.4
59.27	11.06	5.41	1056.8	1004.6
59.28	11.06	5.4	1056.8	1004.4
59.29	11.06	5.4	1056.4	1004.2
59.3	11.06	5.4	1056.8	1004.0
59.31	11.07	5.41	1056.6	1004.5
59.32	11.06	5.41	1056.4	1004.3
59.33	11.06	5.41	1056.4	1004.2
59.34	11.07	5.41	1057.2	1004.5
59.35	11.07	5.41	1056.4	1004.6
59.36	11.05	5.4	1056.6	1004.2
59.37	11.06	5.4	1056.4	1004.5
59.38	11.04	5.4	1056.3	1004.3
59.39	11.06	5.41	1056.5	1004.2
59.4	11.07	5.41	1056.6	1004.3
59.41	11.06	5.4	1056.7	1004.3
59.42	11.06	5.41	1056.7	1004.0
59.43	11.07	5.41	1056.4	1004.2
59.44	11.06	5.4	1056.5	1004.3
59.45	11.06	5.41	1056.3	1004.2
59.46	11.06	5.41	1056.9	1004.2
59.47	11.06	5.4	1056.6	1004.0
59.48	11.06	5.41	1056.4	1003.8
59.49	11.06	5.41	1055.8	1004.0
59.5	11.06	5.41	1056.3	1004.0
59.51	11.07	5.41	1056.7	1004.0
59.52	11.06	5.4	1056.4	1003.8
59.53	11.06	5.41	1056.1	1003.9
59.54	11.05	5.4	1056.4	1004.0
59.55	11.07	5.41	1056.2	1003.8
59.56	11.05	5.41	1056.2	1004.0
59.57	11.07	5.41	1056.0	1004.2
59.58	11.05	5.4	1056.1	1003.9
59.59	11.07	5.41	1056.2	1004.0
59.6	11.05	5.4	1056.2	1003.8
59.61	11.06	5.41	1055.9	1004.2
59.62	11.05	5.4	1056.6	1004.1
59.63	11.07	5.41	1056.1	1004.2
59.64	11.06	5.4	1056.5	1003.9
59.65	11.06	5.4	1055.9	1004.0
59.66	11.06	5.4	1055.9	1003.8
59.67	11.05	5.41	1055.9	1003.9
59.68	11.05	5.4	1055.1	1003.8
59.69	11.07	5.41	1055.8	1004.1
59.7	11.05	5.4	1055.9	1004.0
59.71	11.06	5.41	1055.9	1004.1
59.72	11.06	5.4	1055.9	1003.8
59.73	11.06	5.41	1056.0	1004.0
59.74	11.06	5.4	1055.9	1003.9
59.75	11.05	5.4	1055.9	1004.1
59.76	11.06	5.41	1055.5	1004.0
59.77	11.05	5.4	1055.8	1003.7
59.78	11.07	5.4	1055.9	1003.9
59.79	11.05	5.4	1056.2	1003.7
59.8	11.06	5.4	1055.6	1004.0
59.81	11.06	5.4	1056.4	1004.0
59.82	11.07	5.41	1056.3	1004.0
59.83	11.06	5.4	1056.2	1004.0
59.84	11.07	5.41	1055.6	1004.1
59.85	11.05	5.4	1055.8	1004.0
59.86	11.06	5.41	1055.6	1003.9
59.87	11.07	5.41	1055.6	1003.9
59.88	11.07	5.4	1055.5	1004.0
59.89	11.06	5.4	1055.8	1003.9
59.9	11.06	5.4	1055.6	1003.9
59.91	11.05	5.4	1055.2	1003.9
59.92	11.06	5.4	1055.4	1004.1
59.93	11.05	5.4	1055.7	1003.9
59.94	11.06	5.41	1055.5	1003.8
59.95	11.06	5.41	1055.4	1004.0
59.96	11.05	5.4	1055.4	1003.8
59.97	11.06	5.4	1055.4	1003.9
59.98	11.06	5.4	1055.6	1004.0
59.98	11.06	5.4	1055.6	1004.0
59.99	11.06	5.4	1055.6	1004.0
60.0	11.06	5.4	1055.6	1004.0
60.01	11.06	5.4	1055.6	1004.0
60.02	11.06	5.4	1055.6	1004.0
60.03	11.06	5.4	1055.6	1004.0
60.04	11.06	5.4	1055.6	1004.0
60.05	11.06	5.4	1055.6	1004.0
60.06	11.06	5.4	1055.6	1004.0
60.07	11.06	5.4	1055.6	1004.0
60.08	11.06	5.4	1055.6	1004.0
60.09	11.06	5.4	1055.6	1004.0
60.1	11.06	5.4	1055.6	1004.0
60.11	11.06	5.4	1055.6	1004.0
60.12	11.06	5.4	1055.6	1004.0
60.13	11.06	5.4	1055.6	1004.0
60.14	11.06	5.4	1055.6	1004.0
60.15	11.06	5.4	1055.6	1004.0
60.16	11.06	5.4	1055.6	1004.0
60.17	11.06	5.4	1055.6	1004.0
60.18	11.06	5.4	1055.6	1004.0
60.19	11.06	5.4	1055.6	1004.0
60.2	11.06	5.4	1055.6	1004.0
60.21	11.06	5.4	1055.6	1004.0
60.22	11.06	5.4	1055.6	1004.0
60.23	11.06	5.4	1055.6	1004.0
60.24	11.06	5.4	1055.6	1004.0
60.25	11.06	5.4	1055.6	1004.0
60.26	11.06	5.4	1055.6	1004.0
60.27	11.06	5.4	1055.6	1004.0
60.28	11.06	5.4	1055.6	1004.0
60.29	11.06	5.4	1055.6	1004.0
60.3	11.06	5.4	1055.6	1004.0
60.31	11.06	5.4	1055.6	1004.0
60.32	11.06	5.4	1055.6	1004.0
60.33	11.06	5.4	1055.6	1004.0
60.34	11.06	5.4	1055.6	1004.0
60.35	11.06	5.4	1055.6	1004.0
60.36	11.06	5.4	1055.6	1004.0
60.37	11.06	5.4	1055.6	1004.0
60.38	11.06	5.4	1055.6	1004.0
60.39	11.06	5.4	1055.6	1004.0
60.4	11.06	5.4	1055.6	1004.0
60.41	11.06	5.4	1055.6	1004.0
60.42	11.06	5.4	1055.6	1004.0
60.43	11.06	5.4	1055.6	1004.0
60.44	11.06	5.4	1055.6	1004.0
60.45	11.06	5.4	1055.6	1004.0
60.46	11.06	5.4	1055.6	1004.0
60.47	11.06	5.4	1055.6	1004.0
60.48	11.06	5.4	1055.6	1004.0
60.49	11.06	5.4	1055.6	1004.0
60.5	11.06	5.4	1055.6	1004.0
60.51	11.06	5.4	1055.6	1004.0
60.52	11.06	5.4	1055.6	1004.0
60.53	11.06	5.4	1055.6	1004.0
60.54	11.06	5.4	1055.6	1004.0
60.55	11.06	5.4	1055.6	1004.0
60.56	11.06	5.4	1055.6	1004.0
60.57	11.06	5.4	1055.6	1004.0
60.58	11.06	5.4	1055.6	1004.0
60.59	11.06	5.4	1055.6	1004.0
60.6	11.06	5.4	1055.6	1004.0
60.61	11.06	5.4	1055.6	1004.0
60.62	11.06	5.4	1055.6	1004.0
60.63	11.06	5.4	1055.6	1004.0
60.64	11.06	5.4	1055.6	1004.0
60.65	11.06	5.4	1055.6	1004.0
60.66	11.06	5.4	1055.6	1004.0
60.67	11.06	5.4	1055.6	1004.0
60.68	11.06	5.4	1055.6	1004.0
60.69	11.06	5.4	1055.6	1004.0
60.7	11.06	5.4	1055.6	1004.0
60.71	11.06	5.4	1055.6	1004.0
60.72	11.06	5.4	1055.6	1004.0
60.73	11.06	5.4	1055.6	1004.0
60.74	11.06	5.4	1055.6	1004.0
60.75	11.06	5.4	1055.6	1004.0
60.76	11.06	5.4	1055.6	1004.0
60.77	11.06	5.4	1055.6	1004.0
60.78	11.06	5.4	1055.6	1004.0
60.79	11.06	5.4	1055.6	1004.0
60.8	11.06	5.4	1055.6	1004.0
60.81	11.06	5.4	1055.6	1004.0
60.82	11.06	5.4	1055.6	1004.0
60.83	11.06	5.4	1055.6	1004.0
60.84	11.06	5.4	1055.6	1004.0
60.85	11.06	5.4	1055.6	1004.0
60.86	11.06	5.4	1055.6	1004.0
60.87	11.06	5.4	1055.6	1004.0
60.88	11.06	5.4	1055.6	1004.0
60.89	11.06	5.4	1055.6	1004.0
60.9	11.06	5.4	1055.6	1004.0
60.91	11.06	5.4	1055.6	1004.0
60.92	11.06	5.4	1055.6	1004.0
60.93	11.06	5.4	1055.6	1004.0
60.94	11.06	5.4	1055.6	1004.0
60.95	11.06	5.4	1055.6	1004.0
60.96	11.06	5.4	1055.6	1004.0
60.97	11.06	5.4	1055.6	1004.0
60.98	11.06	5.4	1055.6	1004.0
60.99	11.06	5.4	1055.6	1004.0
61.0	11.06	5.4	1055.6	1004.0